Z-Pos[um]|R[MOhm]|I[pA]
59,060    106,275    1411
59,050    106,639    1407
59,040    106,607    1407
59,030    106,385    1410
59,020    106,087    1414
59,010    106,367    1410
59,000    106,426    1409
58,990    106,077    1414
58,980    106,459    1409
58,970    106,183    1413
58,960    106,403    1410
58,950    106,288    1411
58,940    106,169    1413
58,930    106,468    1409
58,920    106,413    1410
58,910    106,192    1413
58,900    106,160    1413
58,890    106,422    1409
58,880    106,362    1410
58,870    106,018    1415
58,860    106,311    1411
58,850    106,367    1410
58,840    106,344    1411
58,830    106,238    1412
58,820    106,128    1413
58,810    106,288    1411
58,800    106,316    1411
58,790    106,431    1409
58,780    106,288    1411
58,770    105,977    1415
58,760    106,284    1411
58,750    106,293    1411
58,740    106,284    1411
58,730    106,100    1414
58,720    105,917    1416
58,710    106,325    1411
58,700    106,463    1409
58,690    106,436    1409
58,680    106,574    1407
58,670    106,321    1411
58,660    106,473    1409
58,650    106,653    1406
58,640    106,718    1406
58,630    106,109    1414
58,620    106,459    1409
58,610    106,399    1410
58,600    106,238    1412
58,590    106,339    1411
58,580    106,132    1413
58,570    106,307    1411
58,560    106,353    1410
58,550    106,192    1413
58,540    106,219    1412
58,530    106,128    1413
58,520    106,316    1411
58,510    106,436    1409
58,500    106,219    1412
58,490    106,279    1411
58,480    106,151    1413
58,470    106,197    1412
58,460    106,330    1411
58,450    106,279    1411
58,440    106,123    1413
58,430    106,128    1413
58,420    106,307    1411
58,410    106,298    1411
58,400    106,302    1411
58,390    106,054    1414
58,380    106,371    1410
58,370    106,293    1411
58,360    106,348    1410
58,350    106,210    1412
58,340    106,022    1415
58,330    106,413    1410
58,320    106,293    1411
58,310    106,399    1410
58,300    106,265    1412
58,290    106,073    1414
58,280    106,279    1411
58,270    106,229    1412
58,260    106,353    1410
58,250    106,399    1410
58,240    105,954    1416
58,230    106,362    1410
58,220    106,376    1410
58,210    106,105    1414
58,200    106,247    1412
58,190    106,164    1413
58,180    106,270    1411
58,170    106,261    1412
58,160    106,132    1413
58,150    106,311    1411
58,140    106,242    1412
58,130    106,380    1410
58,120    106,385    1410
58,110    106,215    1412
58,100    106,307    1411
58,090    106,201    1412
58,080    106,027    1415
58,070    106,565    1408
58,060    106,201    1412
58,050    106,087    1414
58,040    106,330    1411
58,030    106,132    1413
58,020    106,293    1411
58,010    106,440    1409
58,000    106,132    1413
57,990    106,192    1413
57,980    106,275    1411
57,970    106,123    1413
57,960    106,316    1411
57,950    106,041    1415
57,940    106,238    1412
57,930    106,408    1410
57,920    106,109    1414
57,910    106,376    1410
57,900    106,091    1414
57,890    106,224    1412
57,880    106,394    1410
57,870    106,119    1414
57,860    106,426    1409
57,850    106,087    1414
57,840    106,013    1415
57,830    106,500    1408
57,820    106,187    1413
57,810    106,367    1410
57,800    106,321    1411
57,790    105,986    1415
57,780    106,486    1409
57,770    106,201    1412
57,760    106,357    1410
57,750    106,261    1412
57,740    106,114    1414
57,730    106,376    1410
57,720    106,265    1412
57,710    106,164    1413
57,700    106,371    1410
57,690    106,215    1412
57,680    106,413    1410
57,670    106,408    1410
57,660    105,990    1415
57,650    106,445    1409
57,640    106,348    1410
57,630    106,357    1410
57,620    106,252    1412
57,610    106,041    1415
57,600    106,486    1409
57,590    106,265    1412
57,580    106,399    1410
57,570    106,316    1411
57,560    106,105    1414
57,550    106,256    1412
57,540    106,307    1411
57,530    106,477    1409
57,520    106,403    1410
57,510    106,151    1413
57,500    106,426    1409
57,490    106,450    1409
57,480    106,265    1412
57,470    106,440    1409
57,460    106,077    1414
57,450    106,403    1410
57,440    106,574    1407
57,430    106,261    1412
57,420    106,339    1411
57,410    106,100    1414
57,400    106,403    1410
57,390    106,440    1409
57,380    106,151    1413
57,370    106,417    1410
57,360    106,210    1412
57,350    106,422    1409
57,340    106,551    1408
57,330    106,523    1408
57,320    106,634    1407
57,310    106,764    1405
57,300    106,634    1407
57,290    106,694    1406
57,280    106,708    1406
57,270    106,505    1408
57,260    106,551    1408
57,250    106,889    1403
57,240    106,630    1407
57,230    106,261    1412
57,220    106,556    1408
57,210    106,653    1406
57,200    106,667    1406
57,190    106,505    1408
57,180    106,597    1407
57,170    106,996    1402
57,160    106,514    1408
57,150    107,230    1399
57,140    107,408    1397
57,130    107,286    1398
57,120    107,577    1394
57,110    107,544    1395
57,100    108,570    1382
57,090    107,728    1392
57,080    108,240    1386
57,070    110,863    1353
