Z-Pos[um]|R[MOhm]|I[pA]
59,044    106,087    1414
59,034    106,634    1407
59,024    106,367    1410
59,014    106,542    1408
59,004    106,270    1411
58,994    106,764    1405
58,984    106,206    1412
58,974    106,394    1410
58,964    106,348    1410
58,954    105,963    1416
58,944    106,394    1410
58,934    106,380    1410
58,924    106,385    1410
58,914    106,275    1411
58,904    106,036    1415
58,894    106,579    1407
58,884    106,371    1410
58,874    106,334    1411
58,864    106,344    1411
58,854    106,114    1414
58,844    106,533    1408
58,834    106,311    1411
58,824    106,233    1412
58,814    106,431    1409
58,804    106,155    1413
58,794    106,353    1410
58,784    106,468    1409
58,774    106,192    1413
58,764    106,385    1410
58,754    106,169    1413
58,744    106,146    1413
58,734    106,528    1408
58,724    106,348    1410
58,714    106,279    1411
58,704    106,293    1411
58,694    106,077    1414
58,684    106,450    1409
58,674    106,224    1412
58,664    106,353    1410
58,654    106,229    1412
58,644    106,187    1413
58,634    106,482    1409
58,624    106,238    1412
58,614    106,371    1410
58,604    106,307    1411
58,594    106,215    1412
58,584    106,477    1409
58,574    106,293    1411
58,564    106,073    1414
58,554    106,367    1410
58,544    106,417    1410
58,534    106,560    1408
58,524    106,247    1412
58,514    106,367    1410
58,504    106,459    1409
58,494    106,307    1411
58,484    106,408    1410
58,474    106,233    1412
58,464    106,123    1413
58,454    106,399    1410
58,444    106,256    1412
58,434    106,380    1410
58,424    106,514    1408
58,414    106,146    1413
58,404    106,357    1410
58,394    106,183    1413
58,384    106,486    1409
58,374    106,413    1410
58,364    106,137    1413
58,354    106,463    1409
58,344    106,468    1409
58,334    106,187    1413
58,324    106,436    1409
58,314    106,054    1414
58,304    106,500    1408
58,294    106,417    1410
58,284    106,146    1413
58,274    106,440    1409
58,264    106,109    1414
58,254    106,454    1409
58,244    106,357    1410
58,234    106,169    1413
58,224    106,367    1410
58,214    106,187    1413
58,204    106,275    1411
58,194    106,482    1409
58,184    106,275    1411
58,174    106,321    1411
58,164    106,132    1413
58,154    106,367    1410
58,144    106,644    1407
58,134    106,293    1411
58,124    106,275    1411
58,114    106,210    1412
58,104    106,321    1411
58,094    106,560    1408
58,084    106,403    1410
58,074    106,445    1409
58,064    106,224    1412
58,054    106,362    1410
58,044    106,496    1409
58,034    106,311    1411
58,024    106,174    1413
58,014    106,403    1410
58,004    106,201    1412
57,994    106,519    1408
57,984    106,454    1409
57,974    106,064    1414
57,964    106,463    1409
57,954    106,316    1411
57,944    106,353    1410
57,934    106,436    1409
57,924    106,151    1413
57,914    106,500    1408
57,904    106,357    1410
57,894    106,473    1409
57,884    106,829    1404
57,874    106,288    1411
57,864    106,380    1410
57,854    106,307    1411
57,844    106,151    1413
57,834    106,431    1409
57,824    106,146    1413
57,814    106,334    1411
57,804    106,477    1409
57,794    106,229    1412
57,784    106,463    1409
57,774    106,050    1414
57,764    106,426    1409
57,754    106,593    1407
57,744    106,422    1409
57,734    106,514    1408
57,724    106,265    1412
57,714    106,068    1414
57,704    106,500    1408
57,694    106,293    1411
57,684    106,367    1410
57,674    106,293    1411
57,664    106,096    1414
57,654    106,593    1407
57,644    106,473    1409
57,634    106,307    1411
57,624    106,344    1411
57,614    106,261    1412
57,604    106,344    1411
57,594    106,556    1408
57,584    106,293    1411
57,574    106,334    1411
57,564    106,574    1407
57,554    106,132    1413
57,544    106,454    1409
57,534    106,201    1412
57,524    106,279    1411
57,514    106,630    1407
57,504    106,275    1411
57,494    106,353    1410
57,484    106,390    1410
57,474    106,206    1412
57,464    106,810    1404
57,454    106,371    1410
57,444    106,293    1411
57,434    106,459    1409
57,424    106,183    1413
57,414    106,519    1408
57,404    106,436    1409
57,394    106,459    1409
57,384    106,718    1406
57,374    106,385    1410
57,364    106,653    1406
57,354    106,505    1408
57,344    106,732    1405
57,334    106,787    1405
57,324    106,630    1407
57,314    106,201    1412
57,304    106,500    1408
57,294    106,648    1406
57,284    106,565    1408
57,274    106,607    1407
57,264    106,288    1411
57,254    106,583    1407
57,244    106,565    1408
57,234    106,560    1408
57,224    106,694    1406
57,214    106,311    1411
57,204    106,413    1410
57,194    106,908    1403
57,184    106,875    1404
57,174    106,496    1409
57,164    106,477    1409
57,154    106,676    1406
57,144    106,927    1403
57,134    106,708    1406
57,124    106,787    1405
57,114    106,783    1405
57,104    107,122    1400
57,094    107,099    1401
57,084    107,258    1398
57,074    107,029    1401
57,064    106,973    1402
57,054    110,117    1362
57,044    108,792    1379
57,034    108,369    1384
57,024    109,543    1369
