Z-Pos[um]|R[MOhm]|I[pA]
100,000    106,413    1410
99,990    106,565    1408
99,980    105,954    1416
99,970    106,316    1411
99,960    106,229    1412
99,950    106,119    1414
99,940    106,321    1411
99,930    106,334    1411
99,920    106,403    1410
99,910    106,514    1408
99,900    106,298    1411
99,890    106,096    1414
99,880    106,671    1406
99,870    106,311    1411
99,860    106,132    1413
99,850    106,403    1410
99,840    106,426    1409
99,830    106,247    1412
99,820    106,454    1409
99,810    106,385    1410
99,800    106,288    1411
99,790    106,201    1412
99,780    106,114    1414
99,770    106,380    1410
99,760    106,399    1410
99,750    106,459    1409
99,740    106,426    1409
99,730    106,288    1411
99,720    106,390    1410
99,710    106,459    1409
99,700    106,394    1410
99,690    106,376    1410
99,680    106,505    1408
99,670    106,348    1410
99,660    106,463    1409
99,650    106,426    1409
99,640    106,344    1411
99,630    106,321    1411
99,620    106,482    1409
99,610    106,413    1410
99,600    106,417    1410
99,590    106,279    1411
99,580    106,091    1414
99,570    106,344    1411
99,560    106,403    1410
99,550    106,036    1415
99,540    106,288    1411
99,530    106,238    1412
99,520    106,298    1411
99,510    106,431    1409
99,500    106,000    1415
99,490    106,330    1411
99,480    106,187    1413
99,470    106,091    1414
99,460    106,279    1411
99,450    106,059    1414
99,440    106,482    1409
99,430    106,978    1402
99,420    106,625    1407
99,410    106,385    1410
99,400    106,699    1406
99,390    106,834    1404
99,380    106,344    1411
99,370    106,293    1411
99,360    106,242    1412
99,350    106,109    1414
99,340    106,348    1410
99,330    106,242    1412
99,320    106,178    1413
99,310    106,229    1412
99,300    106,114    1414
99,290    106,445    1409
99,280    106,298    1411
99,270    106,018    1415
99,260    106,321    1411
99,250    106,316    1411
99,240    106,408    1410
99,230    106,197    1412
99,220    106,027    1415
99,210    106,270    1411
99,200    106,321    1411
99,190    106,334    1411
99,180    106,169    1413
99,170    106,036    1415
99,160    106,330    1411
99,150    106,210    1412
99,140    106,284    1411
99,130    106,560    1408
99,120    106,201    1412
99,110    106,334    1411
99,100    106,288    1411
99,090    106,477    1409
99,080    106,132    1413
99,070    106,123    1413
99,060    106,105    1414
99,050    106,505    1408
99,040    106,293    1411
99,030    106,325    1411
99,020    106,252    1412
99,010    106,279    1411
99,000    106,509    1408
98,990    106,537    1408
98,980    106,413    1410
98,970    106,371    1410
98,960    106,667    1406
98,950    106,454    1409
98,940    106,311    1411
98,930    106,279    1411
98,920    106,206    1412
98,910    106,210    1412
98,900    106,445    1409
98,890    106,018    1415
98,880    106,206    1412
98,870    106,275    1411
98,860    106,169    1413
98,850    106,371    1410
98,840    106,068    1414
98,830    106,431    1409
98,820    106,169    1413
98,810    106,210    1412
98,800    106,339    1411
98,790    106,087    1414
98,780    106,265    1412
98,770    106,288    1411
98,760    106,087    1414
98,750    106,307    1411
98,740    106,032    1415
98,730    105,990    1415
98,720    106,413    1410
98,710    106,091    1414
98,700    106,160    1413
98,690    106,105    1414
98,680    106,077    1414
98,670    106,597    1407
98,660    106,279    1411
98,650    106,454    1409
98,640    106,311    1411
98,630    106,293    1411
98,620    106,376    1410
98,610    106,275    1411
98,600    106,073    1414
98,590    106,417    1410
98,580    106,077    1414
98,570    106,334    1411
98,560    106,321    1411
98,550    106,105    1414
98,540    106,353    1410
98,530    106,128    1413
98,520    106,330    1411
98,510    106,270    1411
98,500    106,045    1414
98,490    106,316    1411
98,480    106,357    1410
98,470    106,164    1413
98,460    106,302    1411
98,450    105,977    1415
98,440    106,242    1412
98,430    106,348    1410
98,420    106,123    1413
98,410    106,293    1411
98,400    106,109    1414
98,390    106,137    1413
98,380    106,528    1408
98,370    106,091    1414
98,360    106,247    1412
98,350    106,141    1413
98,340    106,178    1413
98,330    106,546    1408
98,320    106,210    1412
98,310    106,261    1412
98,300    106,215    1412
98,290    106,247    1412
98,280    106,468    1409
98,270    106,242    1412
98,260    106,128    1413
98,250    106,247    1412
98,240    106,178    1413
98,230    106,256    1412
98,220    106,109    1414
98,210    106,307    1411
98,200    106,261    1412
98,190    106,087    1414
98,180    106,528    1408
98,170    106,357    1410
98,160    106,155    1413
98,150    106,376    1410
98,140    106,146    1413
98,130    106,459    1409
98,120    106,307    1411
98,110    106,027    1415
98,100    106,422    1409
98,090    106,151    1413
98,080    106,413    1410
98,070    106,242    1412
98,060    105,981    1415
98,050    106,422    1409
98,040    106,367    1410
98,030    106,371    1410
98,020    106,261    1412
98,010    105,899    1416
98,000    106,201    1412
97,990    106,408    1410
97,980    106,183    1413
97,970    106,496    1409
97,960    106,174    1413
97,950    106,141    1413
97,940    106,367    1410
97,930    106,242    1412
97,920    106,311    1411
97,910    105,968    1416
97,900    106,041    1415
97,890    106,509    1408
97,880    106,032    1415
97,870    106,325    1411
97,860    106,187    1413
97,850    106,087    1414
97,840    106,376    1410
97,830    106,109    1414
97,820    106,339    1411
97,810    106,174    1413
97,800    106,128    1413
97,790    106,311    1411
97,780    106,215    1412
97,770    106,109    1414
97,760    106,123    1413
97,750    106,288    1411
97,740    106,215    1412
97,730    106,229    1412
97,720    106,334    1411
97,710    106,634    1407
97,700    106,334    1411
97,690    105,972    1415
97,680    106,183    1413
97,670    106,128    1413
97,660    106,426    1409
97,650    106,325    1411
97,640    106,087    1414
97,630    106,261    1412
97,620    106,229    1412
97,610    106,417    1410
97,600    106,348    1410
97,590    106,041    1415
97,580    106,252    1412
97,570    106,119    1414
97,560    106,298    1411
97,550    106,275    1411
97,540    106,068    1414
97,530    106,394    1410
97,520    106,059    1414
97,510    106,238    1412
97,500    106,334    1411
97,490    106,505    1408
97,480    106,187    1413
97,470    106,505    1408
97,460    106,059    1414
97,450    106,247    1412
97,440    106,032    1415
97,430    106,109    1414
97,420    106,298    1411
97,410    106,132    1413
97,400    105,986    1415
97,390    106,256    1412
97,380    106,321    1411
97,370    106,073    1414
97,360    106,224    1412
97,350    105,995    1415
97,340    106,238    1412
97,330    106,542    1408
97,320    106,068    1414
97,310    106,174    1413
97,300    106,100    1414
97,290    106,164    1413
97,280    106,445    1409
97,270    106,155    1413
97,260    106,192    1413
97,250    106,087    1414
97,240    106,215    1412
97,230    106,399    1410
97,220    106,298    1411
97,210    106,330    1411
97,200    106,100    1414
97,190    106,041    1415
97,180    106,367    1410
97,170    106,215    1412
97,160    105,995    1415
97,150    106,247    1412
97,140    106,238    1412
97,130    106,307    1411
97,120    106,486    1409
97,110    106,141    1413
97,100    106,330    1411
97,090    106,440    1409
97,080    106,367    1410
97,070    106,270    1411
97,060    106,050    1414
97,050    106,334    1411
97,040    106,556    1408
97,030    106,348    1410
97,020    106,542    1408
97,010    106,376    1410
97,000    106,298    1411
96,990    106,519    1408
96,980    106,514    1408
96,970    106,275    1411
96,960    106,491    1409
96,950    106,593    1407
96,940    106,270    1411
96,930    106,500    1408
96,920    106,570    1408
96,910    106,238    1412
96,900    106,344    1411
96,890    106,362    1410
96,880    106,210    1412
96,870    106,431    1409
96,860    106,380    1410
96,850    106,477    1409
96,840    106,197    1412
96,830    106,013    1415
96,820    106,321    1411
96,810    106,302    1411
96,800    106,302    1411
96,790    106,123    1413
96,780    106,256    1412
96,770    106,311    1411
96,760    106,224    1412
96,750    106,367    1410
96,740    106,183    1413
96,730    106,151    1413
96,720    106,146    1413
96,710    106,252    1412
96,700    106,302    1411
96,690    106,376    1410
96,680    106,119    1414
96,670    106,325    1411
96,660    106,371    1410
96,650    106,233    1412
96,640    106,261    1412
96,630    106,164    1413
96,620    106,261    1412
96,610    106,252    1412
96,600    106,000    1415
96,590    106,307    1411
96,580    106,041    1415
96,570    106,242    1412
96,560    106,307    1411
96,550    106,174    1413
96,540    106,265    1412
96,530    106,307    1411
96,520    106,137    1413
96,510    106,344    1411
96,500    106,192    1413
96,490    106,261    1412
96,480    106,210    1412
96,470    106,087    1414
96,460    106,339    1411
96,450    106,265    1412
96,440    106,293    1411
96,430    106,201    1412
96,420    106,339    1411
96,410    106,339    1411
96,400    106,311    1411
96,390    105,945    1416
96,380    106,105    1414
96,370    106,224    1412
96,360    106,321    1411
96,350    106,256    1412
96,340    106,054    1414
96,330    106,500    1408
96,320    106,298    1411
96,310    106,334    1411
96,300    106,233    1412
96,290    106,132    1413
96,280    106,344    1411
96,270    106,252    1412
96,260    106,210    1412
96,250    106,238    1412
96,240    106,155    1413
96,230    106,279    1411
96,220    106,722    1406
96,210    106,546    1408
96,200    106,616    1407
96,190    106,815    1404
96,180    106,871    1404
96,170    106,560    1408
96,160    106,690    1406
96,150    106,718    1406
96,140    106,755    1405
96,130    106,620    1407
96,120    106,542    1408
96,110    106,630    1407
96,100    106,413    1410
96,090    106,325    1411
96,080    106,256    1412
96,070    106,091    1414
96,060    106,302    1411
96,050    106,137    1413
96,040    106,298    1411
96,030    106,224    1412
96,020    106,279    1411
96,010    106,519    1408
96,000    106,694    1406
95,990    106,371    1410
95,980    106,362    1410
95,970    106,574    1407
95,960    106,450    1409
95,950    106,390    1410
95,940    106,380    1410
95,930    106,146    1413
95,920    106,247    1412
95,910    106,367    1410
95,900    106,219    1412
95,890    106,399    1410
95,880    106,371    1410
95,870    106,146    1413
95,860    106,431    1409
95,850    106,146    1413
95,840    106,325    1411
95,830    106,141    1413
95,820    106,219    1412
95,810    106,417    1410
95,800    106,137    1413
95,790    106,206    1412
95,780    106,073    1414
95,770    106,114    1414
95,760    106,436    1409
95,750    106,169    1413
95,740    106,252    1412
95,730    106,307    1411
95,720    105,954    1416
95,710    106,450    1409
95,700    106,229    1412
95,690    106,265    1412
95,680    106,233    1412
95,670    106,210    1412
95,660    106,316    1411
95,650    106,132    1413
95,640    106,137    1413
95,630    106,385    1410
95,620    106,256    1412
95,610    106,224    1412
95,600    106,187    1413
95,590    106,174    1413
95,580    106,353    1410
95,570    106,114    1414
95,560    106,380    1410
95,550    106,875    1404
95,540    106,353    1410
95,530    106,551    1408
95,520    106,759    1405
95,510    106,829    1404
95,500    106,690    1406
95,490    106,713    1406
95,480    106,894    1403
95,470    106,750    1405
95,460    106,875    1404
95,450    106,913    1403
95,440    106,344    1411
95,430    106,247    1412
95,420    106,183    1413
95,410    106,403    1410
95,400    106,334    1411
95,390    106,242    1412
95,380    106,334    1411
95,370    106,201    1412
95,360    106,367    1410
95,350    106,100    1414
95,340    106,178    1413
95,330    106,160    1413
95,320    106,087    1414
95,310    106,450    1409
95,300    106,123    1413
95,290    106,197    1412
95,280    106,330    1411
95,270    106,261    1412
95,260    106,247    1412
95,250    106,219    1412
95,240    106,041    1415
95,230    106,210    1412
95,220    106,096    1414
95,210    106,321    1411
95,200    106,252    1412
95,190    106,073    1414
95,180    106,316    1411
95,170    106,224    1412
95,160    106,371    1410
95,150    106,588    1407
95,140    106,385    1410
95,130    106,523    1408
95,120    106,718    1406
95,110    106,403    1410
95,100    106,367    1410
95,090    106,422    1409
95,080    106,579    1407
95,070    106,316    1411
95,060    106,371    1410
95,050    106,022    1415
95,040    106,192    1413
95,030    106,183    1413
95,020    106,215    1412
95,010    106,339    1411
95,000    105,995    1415
94,990    106,570    1408
94,980    106,256    1412
94,970    105,945    1416
94,960    106,348    1410
94,950    106,201    1412
94,940    106,105    1414
94,930    106,367    1410
94,920    106,091    1414
94,910    106,357    1410
94,900    106,307    1411
94,890    106,096    1414
94,880    106,334    1411
94,870    106,141    1413
94,860    106,119    1414
94,850    106,178    1413
94,840    106,256    1412
94,830    106,325    1411
94,820    106,284    1411
94,810    106,151    1413
94,800    106,390    1410
94,790    106,004    1415
94,780    106,639    1407
94,770    106,727    1405
94,760    106,385    1410
94,750    106,468    1409
94,740    106,685    1406
94,730    106,783    1405
94,720    106,620    1407
94,710    106,219    1412
94,700    106,450    1409
94,690    106,146    1413
94,680    106,334    1411
94,670    106,018    1415
94,660    106,137    1413
94,650    106,321    1411
94,640    106,123    1413
94,630    106,265    1412
94,620    106,178    1413
94,610    106,045    1414
94,600    106,450    1409
94,590    106,105    1414
94,580    106,215    1412
94,570    106,096    1414
94,560    106,215    1412
94,550    106,468    1409
94,540    106,151    1413
94,530    106,394    1410
94,520    106,146    1413
94,510    106,344    1411
94,500    106,463    1409
94,490    106,041    1415
94,480    106,252    1412
94,470    106,187    1413
94,460    106,064    1414
94,450    106,394    1410
94,440    106,325    1411
94,430    106,114    1414
94,420    106,279    1411
94,410    106,174    1413
94,400    106,426    1409
94,390    106,307    1411
94,380    106,146    1413
94,370    106,215    1412
94,360    106,082    1414
94,350    106,210    1412
94,340    106,330    1411
94,330    106,000    1415
94,320    106,298    1411
94,310    106,091    1414
94,300    106,399    1410
94,290    106,215    1412
94,280    106,018    1415
94,270    106,385    1410
94,260    106,256    1412
94,250    106,201    1412
94,240    106,242    1412
94,230    106,091    1414
94,220    106,242    1412
94,210    106,210    1412
94,200    106,229    1412
94,190    106,376    1410
94,180    106,155    1413
94,170    106,201    1412
94,160    106,298    1411
94,150    106,109    1414
94,140    106,192    1413
94,130    105,986    1415
94,120    105,972    1415
94,110    106,394    1410
94,100    106,013    1415
94,090    106,302    1411
94,080    106,100    1414
94,070    106,045    1414
94,060    106,298    1411
94,050    106,087    1414
94,040    106,394    1410
94,030    106,082    1414
94,020    106,348    1410
94,010    106,087    1414
94,000    106,353    1410
93,990    106,288    1411
93,980    106,261    1412
93,970    106,671    1406
93,960    106,611    1407
93,950    106,325    1411
93,940    106,413    1410
93,930    106,426    1409
93,920    106,339    1411
93,910    106,436    1409
93,900    106,519    1408
93,890    106,288    1411
93,880    106,602    1407
93,870    106,344    1411
93,860    106,311    1411
93,850    106,408    1410
93,840    106,718    1406
93,830    106,537    1408
93,820    106,252    1412
93,810    106,611    1407
93,800    106,367    1410
93,790    106,357    1410
93,780    106,574    1407
93,770    106,316    1411
93,760    106,390    1410
93,750    106,519    1408
93,740    106,224    1412
93,730    106,233    1412
93,720    106,316    1411
93,710    106,477    1409
93,700    106,307    1411
93,690    106,192    1413
93,680    106,100    1414
93,670    106,325    1411
93,660    106,174    1413
93,650    106,491    1409
93,640    106,408    1410
93,630    106,114    1414
93,620    106,316    1411
93,610    106,050    1414
93,600    106,334    1411
93,590    106,311    1411
93,580    105,917    1416
93,570    106,353    1410
93,560    106,137    1413
93,550    106,242    1412
93,540    106,316    1411
93,530    106,284    1411
93,520    106,302    1411
93,510    106,187    1413
93,500    106,169    1413
93,490    106,616    1407
93,480    106,114    1414
93,470    106,114    1414
93,460    106,431    1409
93,450    106,302    1411
93,440    106,261    1412
93,430    106,087    1414
93,420    106,004    1415
93,410    106,866    1404
93,400    106,773    1405
93,390    106,597    1407
93,380    106,574    1407
93,370    106,871    1404
93,360    106,796    1405
93,350    106,509    1408
93,340    106,773    1405
93,330    106,838    1404
93,320    106,380    1410
93,310    105,972    1415
93,300    106,307    1411
93,290    106,376    1410
93,280    106,169    1413
93,270    106,169    1413
93,260    106,054    1414
93,250    106,307    1411
93,240    106,334    1411
93,230    106,087    1414
93,220    106,183    1413
93,210    105,995    1415
93,200    106,178    1413
93,190    106,496    1409
93,180    106,174    1413
93,170    106,344    1411
93,160    106,224    1412
93,150    106,183    1413
93,140    106,436    1409
93,130    106,137    1413
93,120    106,178    1413
93,110    106,068    1414
93,100    106,073    1414
93,090    106,367    1410
93,080    106,210    1412
93,070    105,968    1416
93,060    106,302    1411
93,050    106,247    1412
93,040    106,298    1411
93,030    106,321    1411
93,020    106,871    1404
93,010    106,242    1412
93,000    106,496    1409
92,990    106,450    1409
92,980    105,977    1415
92,970    106,422    1409
92,960    106,032    1415
92,950    106,219    1412
92,940    106,265    1412
92,930    106,100    1414
92,920    106,339    1411
92,910    106,114    1414
92,900    106,284    1411
92,890    106,279    1411
92,880    106,114    1414
92,870    106,330    1411
92,860    106,192    1413
92,850    106,151    1413
92,840    106,334    1411
92,830    106,027    1415
92,820    106,206    1412
92,810    106,450    1409
92,800    106,137    1413
92,790    106,192    1413
92,780    106,100    1414
92,770    106,128    1413
92,760    106,408    1410
92,750    106,073    1414
92,740    106,151    1413
92,730    106,238    1412
92,720    106,662    1406
92,710    106,298    1411
92,700    106,440    1409
92,690    106,119    1414
92,680    106,509    1408
92,670    106,450    1409
92,660    106,288    1411
92,650    106,611    1407
92,640    106,694    1406
92,630    106,736    1405
92,620    106,579    1407
92,610    106,565    1408
92,600    106,546    1408
92,590    106,344    1411
92,580    106,519    1408
92,570    106,440    1409
92,560    106,417    1410
92,550    106,394    1410
92,540    106,560    1408
92,530    106,371    1410
92,520    106,233    1412
92,510    106,560    1408
92,500    106,376    1410
92,490    106,537    1408
92,480    106,422    1409
92,470    106,050    1414
92,460    106,311    1411
92,450    106,344    1411
92,440    106,119    1414
92,430    106,219    1412
92,420    106,091    1414
92,410    106,353    1410
92,400    106,403    1410
92,390    106,064    1414
92,380    106,330    1411
92,370    106,261    1412
92,360    106,169    1413
92,350    106,394    1410
92,340    106,087    1414
92,330    106,233    1412
92,320    106,307    1411
92,310    106,183    1413
92,300    106,348    1410
92,290    106,224    1412
92,280    106,119    1414
92,270    106,316    1411
92,260    106,178    1413
92,250    106,353    1410
92,240    106,164    1413
92,230    106,201    1412
92,220    106,380    1410
92,210    106,160    1413
92,200    106,265    1412
92,190    106,325    1411
92,180    105,990    1415
92,170    106,325    1411
92,160    106,219    1412
92,150    106,334    1411
92,140    106,403    1410
92,130    106,174    1413
92,120    106,197    1412
92,110    106,187    1413
92,100    106,178    1413
92,090    106,431    1409
92,080    105,972    1415
92,070    106,197    1412
92,060    106,284    1411
92,050    106,261    1412
92,040    106,353    1410
92,030    106,141    1413
92,020    106,265    1412
92,010    106,459    1409
92,000    106,197    1412
91,990    106,229    1412
91,980    106,151    1413
91,970    106,215    1412
91,960    106,367    1410
91,950    105,963    1416
91,940    106,201    1412
91,930    106,109    1414
91,920    106,380    1410
91,910    106,486    1409
91,900    106,206    1412
91,890    106,238    1412
91,880    106,091    1414
91,870    106,178    1413
91,860    106,463    1409
91,850    106,132    1413
91,840    106,270    1411
91,830    106,146    1413
91,820    106,316    1411
91,810    106,500    1408
91,800    106,183    1413
91,790    106,288    1411
91,780    106,141    1413
91,770    106,321    1411
91,760    106,353    1410
91,750    106,330    1411
91,740    106,073    1414
91,730    106,224    1412
91,720    106,169    1413
91,710    106,233    1412
91,700    106,376    1410
91,690    106,064    1414
91,680    106,671    1406
91,670    106,394    1410
91,660    106,137    1413
91,650    106,311    1411
91,640    106,128    1413
91,630    106,178    1413
91,620    106,288    1411
91,610    106,114    1414
91,600    106,054    1414
91,590    106,141    1413
91,580    106,155    1413
91,570    106,362    1410
91,560    106,151    1413
91,550    106,114    1414
91,540    106,247    1412
91,530    106,371    1410
91,520    106,653    1406
91,510    106,454    1409
91,500    106,206    1412
91,490    106,348    1410
91,480    106,597    1407
91,470    106,353    1410
91,460    106,431    1409
91,450    106,500    1408
91,440    106,496    1409
91,430    106,459    1409
91,420    106,597    1407
91,410    106,270    1411
91,400    106,394    1410
91,390    106,454    1409
91,380    106,151    1413
91,370    106,293    1411
91,360    106,137    1413
91,350    106,201    1412
91,340    106,353    1410
91,330    106,160    1413
91,320    106,348    1410
91,310    106,551    1408
91,300    106,330    1411
91,290    106,500    1408
91,280    106,648    1406
91,270    106,353    1410
91,260    106,533    1408
91,250    106,602    1407
91,240    106,073    1414
91,230    106,187    1413
91,220    106,311    1411
91,210    106,344    1411
91,200    106,348    1410
91,190    106,132    1413
91,180    106,270    1411
91,170    106,119    1414
91,160    106,151    1413
91,150    106,376    1410
91,140    106,316    1411
91,130    106,270    1411
91,120    106,376    1410
91,110    106,242    1412
91,100    106,256    1412
91,090    106,426    1409
91,080    105,977    1415
91,070    106,302    1411
91,060    106,252    1412
91,050    106,256    1412
91,040    106,376    1410
91,030    105,926    1416
91,020    106,302    1411
91,010    106,288    1411
91,000    106,100    1414
90,990    106,265    1412
90,980    105,977    1415
90,970    106,321    1411
90,960    106,293    1411
90,950    106,004    1415
90,940    106,265    1412
90,930    106,054    1414
90,920    106,261    1412
90,910    106,630    1407
90,900    106,509    1408
90,890    106,546    1408
90,880    106,741    1405
90,870    106,722    1406
90,860    106,625    1407
90,850    106,565    1408
90,840    106,519    1408
90,830    106,556    1408
90,820    106,556    1408
90,810    106,486    1409
90,800    106,727    1405
90,790    106,755    1405
90,780    106,630    1407
90,770    106,644    1407
90,760    106,796    1405
90,750    106,261    1412
90,740    106,450    1409
90,730    106,533    1408
90,720    106,440    1409
90,710    106,357    1410
90,700    106,671    1406
90,690    106,367    1410
90,680    106,183    1413
90,670    106,334    1411
90,660    106,032    1415
90,650    106,256    1412
90,640    106,233    1412
90,630    106,109    1414
90,620    106,275    1411
90,610    106,128    1413
90,600    106,233    1412
90,590    106,215    1412
90,580    106,082    1414
90,570    106,385    1410
90,560    106,174    1413
90,550    106,119    1414
90,540    106,394    1410
90,530    106,174    1413
90,520    106,059    1414
90,510    106,261    1412
90,500    106,054    1414
90,490    106,050    1414
90,480    106,417    1410
90,470    106,077    1414
90,460    106,210    1412
90,450    106,192    1413
90,440    106,151    1413
90,430    106,344    1411
90,420    106,146    1413
90,410    106,197    1412
90,400    106,325    1411
90,390    106,321    1411
90,380    106,215    1412
90,370    106,224    1412
90,360    106,164    1413
90,350    106,454    1409
90,340    106,722    1406
90,330    106,473    1409
90,320    106,174    1413
90,310    106,445    1409
90,300    106,137    1413
90,290    106,325    1411
90,280    106,261    1412
90,270    106,036    1415
90,260    106,468    1409
90,250    106,141    1413
90,240    106,206    1412
90,230    106,206    1412
90,220    106,137    1413
90,210    106,270    1411
90,200    106,197    1412
90,190    106,252    1412
90,180    106,380    1410
90,170    106,164    1413
90,160    106,238    1412
90,150    106,284    1411
90,140    106,238    1412
90,130    106,348    1410
90,120    106,032    1415
90,110    106,293    1411
90,100    106,463    1409
90,090    106,073    1414
90,080    106,252    1412
90,070    106,132    1413
90,060    106,233    1412
90,050    106,436    1409
90,040    106,321    1411
90,030    106,132    1413
90,020    106,155    1413
90,010    106,270    1411
90,000    106,178    1413
89,990    106,885    1403
89,980    105,968    1416
89,970    106,293    1411
89,960    106,261    1412
89,950    106,330    1411
89,940    106,114    1414
89,930    106,009    1415
89,920    106,394    1410
89,910    106,252    1412
89,900    106,436    1409
89,890    106,128    1413
89,880    106,045    1414
89,870    106,546    1408
89,860    106,385    1410
89,850    106,050    1414
89,840    106,109    1414
89,830    106,119    1414
89,820    106,105    1414
89,810    106,496    1409
89,800    106,178    1413
89,790    106,082    1414
89,780    106,155    1413
89,770    106,219    1412
89,760    106,477    1409
89,750    106,155    1413
89,740    105,986    1415
89,730    106,151    1413
89,720    106,261    1412
89,710    106,353    1410
89,700    106,376    1410
89,690    106,091    1414
89,680    106,321    1411
89,670    106,000    1415
89,660    106,371    1410
89,650    106,293    1411
89,640    106,109    1414
89,630    106,311    1411
89,620    106,206    1412
89,610    106,233    1412
89,600    106,247    1412
89,590    106,050    1414
89,580    106,183    1413
89,570    106,311    1411
89,560    106,316    1411
89,550    106,284    1411
89,540    106,000    1415
89,530    106,164    1413
89,520    106,311    1411
89,510    106,270    1411
89,500    106,298    1411
89,490    105,926    1416
89,480    106,109    1414
89,470    106,353    1410
89,460    106,219    1412
89,450    106,367    1410
89,440    106,073    1414
89,430    106,137    1413
89,420    106,787    1405
89,410    106,224    1412
89,400    106,242    1412
89,390    106,431    1409
89,380    106,348    1410
89,370    106,316    1411
89,360    106,155    1413
89,350    106,068    1414
89,340    106,353    1410
89,330    106,119    1414
89,320    106,224    1412
89,310    106,206    1412
89,300    106,073    1414
89,290    106,325    1411
89,280    106,041    1415
89,270    106,385    1410
89,260    106,376    1410
89,250    106,100    1414
89,240    106,201    1412
89,230    106,206    1412
89,220    106,146    1413
89,210    106,408    1410
89,200    106,059    1414
89,190    106,523    1408
89,180    106,164    1413
89,170    106,270    1411
89,160    106,091    1414
89,150    106,334    1411
89,140    106,648    1406
89,130    106,597    1407
89,120    106,500    1408
89,110    106,330    1411
89,100    106,128    1413
89,090    106,197    1412
89,080    106,238    1412
89,070    105,908    1416
89,060    106,160    1413
89,050    106,279    1411
89,040    106,238    1412
89,030    106,275    1411
89,020    106,013    1415
89,010    106,302    1411
89,000    106,390    1410
88,990    106,215    1412
88,980    106,206    1412
88,970    106,210    1412
88,960    106,187    1413
88,950    106,316    1411
88,940    106,238    1412
88,930    106,100    1414
88,920    106,151    1413
88,910    106,160    1413
88,900    106,316    1411
88,890    106,330    1411
88,880    106,027    1415
88,870    106,238    1412
88,860    106,293    1411
88,850    106,496    1409
88,840    106,362    1410
88,830    106,256    1412
88,820    106,399    1410
88,810    106,201    1412
88,800    106,242    1412
88,790    106,417    1410
88,780    106,128    1413
88,770    106,597    1407
88,760    106,694    1406
88,750    106,197    1412
88,740    106,105    1414
88,730    106,187    1413
88,720    106,123    1413
88,710    106,403    1410
88,700    106,385    1410
88,690    106,091    1414
88,680    106,219    1412
88,670    106,206    1412
88,660    106,426    1409
88,650    106,302    1411
88,640    106,082    1414
88,630    106,298    1411
88,620    106,064    1414
88,610    106,132    1413
88,600    106,224    1412
88,590    106,013    1415
88,580    106,362    1410
88,570    106,206    1412
88,560    106,293    1411
88,550    106,265    1412
88,540    105,995    1415
88,530    106,367    1410
88,520    106,247    1412
88,510    106,123    1413
88,500    106,187    1413
88,490    106,091    1414
88,480    106,357    1410
88,470    106,477    1409
88,460    106,215    1412
88,450    106,123    1413
88,440    106,151    1413
88,430    106,229    1412
88,420    106,528    1408
88,410    106,178    1413
88,400    106,265    1412
88,390    106,073    1414
88,380    106,119    1414
88,370    106,357    1410
88,360    106,027    1415
88,350    106,242    1412
88,340    106,197    1412
88,330    106,059    1414
88,320    106,399    1410
88,310    106,036    1415
88,300    106,482    1409
88,290    106,265    1412
88,280    106,583    1407
88,270    106,403    1410
88,260    105,990    1415
88,250    106,330    1411
88,240    106,206    1412
88,230    106,385    1410
88,220    106,334    1411
88,210    106,128    1413
88,200    106,298    1411
88,190    106,224    1412
88,180    106,302    1411
88,170    106,201    1412
88,160    106,206    1412
88,150    106,293    1411
88,140    106,164    1413
88,130    106,229    1412
88,120    106,371    1410
88,110    106,004    1415
88,100    106,201    1412
88,090    106,403    1410
88,080    106,192    1413
88,070    106,261    1412
88,060    106,114    1414
88,050    106,132    1413
88,040    106,486    1409
88,030    106,100    1414
88,020    106,141    1413
88,010    106,431    1409
88,000    106,206    1412
87,990    106,242    1412
87,980    106,233    1412
87,970    105,926    1416
87,960    106,380    1410
87,950    106,339    1411
87,940    106,261    1412
87,930    106,330    1411
87,920    106,096    1414
87,910    106,307    1411
87,900    106,344    1411
87,890    106,357    1410
87,880    106,256    1412
87,870    106,018    1415
87,860    106,146    1413
87,850    106,408    1410
87,840    106,027    1415
87,830    106,183    1413
87,820    106,187    1413
87,810    106,059    1414
87,800    106,316    1411
87,790    106,096    1414
87,780    106,197    1412
87,770    106,073    1414
87,760    105,917    1416
87,750    106,339    1411
87,740    106,160    1413
87,730    106,174    1413
87,720    106,233    1412
87,710    106,169    1413
87,700    106,482    1409
87,690    106,054    1414
87,680    106,109    1414
87,670    106,348    1410
87,660    106,160    1413
87,650    106,265    1412
87,640    106,114    1414
87,630    106,325    1411
87,620    106,436    1409
87,610    106,164    1413
87,600    106,436    1409
87,590    106,302    1411
87,580    106,073    1414
87,570    106,261    1412
87,560    106,155    1413
87,550    106,201    1412
87,540    106,385    1410
87,530    106,022    1415
87,520    106,298    1411
87,510    106,215    1412
87,500    106,224    1412
87,490    106,764    1405
87,480    106,105    1414
87,470    106,210    1412
87,460    106,390    1410
87,450    106,316    1411
87,440    106,334    1411
87,430    106,013    1415
87,420    106,155    1413
87,410    106,348    1410
87,400    106,054    1414
87,390    106,242    1412
87,380    106,064    1414
87,370    106,096    1414
87,360    106,459    1409
87,350    106,064    1414
87,340    106,151    1413
87,330    106,077    1414
87,320    106,164    1413
87,310    106,477    1409
87,300    106,169    1413
87,290    106,151    1413
87,280    106,174    1413
87,270    106,252    1412
87,260    106,399    1410
87,250    106,256    1412
87,240    106,041    1415
87,230    106,215    1412
87,220    106,164    1413
87,210    106,362    1410
87,200    106,201    1412
87,190    106,091    1414
87,180    106,077    1414
87,170    106,000    1415
87,160    106,376    1410
87,150    106,284    1411
87,140    106,178    1413
87,130    106,330    1411
87,120    106,132    1413
87,110    106,252    1412
87,100    106,353    1410
87,090    106,013    1415
87,080    106,330    1411
87,070    106,242    1412
87,060    106,238    1412
87,050    106,261    1412
87,040    105,849    1417
87,030    106,219    1412
87,020    106,238    1412
87,010    106,160    1413
87,000    106,256    1412
86,990    106,000    1415
86,980    106,132    1413
86,970    106,380    1410
86,960    106,151    1413
86,950    106,302    1411
86,940    106,123    1413
86,930    106,132    1413
86,920    106,362    1410
86,910    105,990    1415
86,900    106,288    1411
86,890    105,968    1416
86,880    105,995    1415
86,870    106,367    1410
86,860    106,137    1413
86,850    106,330    1411
86,840    106,054    1414
86,830    106,009    1415
86,820    106,408    1410
86,810    106,045    1414
86,800    106,302    1411
86,790    106,082    1414
86,780    106,054    1414
86,770    106,367    1410
86,760    106,054    1414
86,750    106,197    1412
86,740    106,141    1413
86,730    106,082    1414
86,720    106,399    1410
86,710    105,926    1416
86,700    106,013    1415
86,690    106,041    1415
86,680    106,284    1411
86,670    106,413    1410
86,660    106,325    1411
86,650    106,445    1409
86,640    106,371    1410
86,630    106,403    1410
86,620    106,500    1408
86,610    106,367    1410
86,600    106,431    1409
86,590    106,625    1407
86,580    106,496    1409
86,570    106,164    1413
86,560    106,367    1410
86,550    106,477    1409
86,540    106,325    1411
86,530    106,468    1409
86,520    106,215    1412
86,510    106,293    1411
86,500    106,403    1410
86,490    106,128    1413
86,480    106,000    1415
86,470    106,496    1409
86,460    106,215    1412
86,450    106,238    1412
86,440    106,769    1405
86,430    106,224    1412
86,420    106,380    1410
86,410    106,630    1407
86,400    106,380    1410
86,390    106,160    1413
86,380    106,146    1413
86,370    106,004    1415
86,360    106,321    1411
86,350    106,169    1413
86,340    106,041    1415
86,330    106,151    1413
86,320    106,119    1414
86,310    106,288    1411
86,300    106,215    1412
86,290    106,174    1413
86,280    106,256    1412
86,270    106,146    1413
86,260    106,114    1414
86,250    106,353    1410
86,240    105,926    1416
86,230    106,298    1411
86,220    106,178    1413
86,210    106,197    1412
86,200    106,376    1410
86,190    106,073    1414
86,180    106,321    1411
86,170    106,174    1413
86,160    106,123    1413
86,150    106,247    1412
86,140    106,000    1415
86,130    106,357    1410
86,120    106,178    1413
86,110    106,077    1414
86,100    106,348    1410
86,090    105,972    1415
86,080    106,201    1412
86,070    106,362    1410
86,060    106,091    1414
86,050    106,164    1413
86,040    105,908    1416
86,030    105,990    1415
86,020    106,357    1410
86,010    106,091    1414
86,000    106,325    1411
85,990    106,197    1412
85,980    106,242    1412
85,970    106,570    1408
85,960    106,206    1412
85,950    106,137    1413
85,940    106,284    1411
85,930    106,109    1414
85,920    106,334    1411
85,910    106,247    1412
85,900    106,362    1410
85,890    106,201    1412
85,880    106,325    1411
85,870    106,293    1411
85,860    105,977    1415
85,850    106,293    1411
85,840    106,064    1414
85,830    106,339    1411
85,820    106,261    1412
85,810    106,128    1413
85,800    106,422    1409
85,790    106,302    1411
85,780    106,307    1411
85,770    106,146    1413
85,760    106,082    1414
85,750    106,367    1410
85,740    106,224    1412
85,730    106,224    1412
85,720    106,247    1412
85,710    106,082    1414
85,700    106,242    1412
85,690    106,298    1411
85,680    106,082    1414
85,670    106,219    1412
85,660    106,064    1414
85,650    106,114    1414
85,640    106,362    1410
85,630    106,132    1413
85,620    106,284    1411
85,610    106,385    1410
85,600    106,197    1412
85,590    106,325    1411
85,580    106,275    1411
85,570    106,123    1413
85,560    106,229    1412
85,550    106,164    1413
85,540    106,229    1412
85,530    106,344    1411
85,520    106,132    1413
85,510    106,302    1411
85,500    106,192    1413
85,490    106,380    1410
85,480    106,399    1410
85,470    106,123    1413
85,460    106,298    1411
85,450    106,238    1412
85,440    106,362    1410
85,430    106,192    1413
85,420    106,036    1415
85,410    106,321    1411
85,400    106,399    1410
85,390    106,192    1413
85,380    106,390    1410
85,370    106,050    1414
85,360    106,059    1414
85,350    106,302    1411
85,340    106,050    1414
85,330    106,376    1410
85,320    106,022    1415
85,310    106,000    1415
85,300    106,454    1409
85,290    106,357    1410
85,280    106,330    1411
85,270    106,486    1409
85,260    106,344    1411
85,250    106,505    1408
85,240    106,413    1410
85,230    106,119    1414
85,220    106,288    1411
85,210    106,325    1411
85,200    106,036    1415
85,190    106,408    1410
85,180    106,141    1413
85,170    106,238    1412
85,160    106,316    1411
85,150    106,431    1409
85,140    106,330    1411
85,130    106,482    1409
85,120    106,403    1410
85,110    106,293    1411
85,100    106,533    1408
85,090    106,307    1411
85,080    106,463    1409
85,070    106,399    1410
85,060    106,353    1410
85,050    106,339    1411
85,040    106,468    1409
85,030    106,616    1407
85,020    106,509    1408
85,010    106,357    1410
85,000    106,422    1409
84,990    106,607    1407
84,980    106,348    1410
84,970    106,151    1413
84,960    105,977    1415
84,950    106,252    1412
84,940    106,634    1407
84,930    106,574    1407
84,920    106,713    1406
84,910    106,667    1406
84,900    106,625    1407
84,890    106,574    1407
84,880    106,546    1408
84,870    106,459    1409
84,860    106,560    1408
84,850    106,565    1408
84,840    106,732    1405
84,830    106,482    1409
84,820    106,491    1409
84,810    106,602    1407
84,800    106,620    1407
84,790    106,634    1407
84,780    106,399    1410
84,770    106,852    1404
84,760    106,750    1405
84,750    106,000    1415
84,740    106,155    1413
84,730    106,330    1411
84,720    106,027    1415
84,710    106,146    1413
84,700    105,922    1416
84,690    106,247    1412
84,680    106,473    1409
84,670    106,151    1413
84,660    106,321    1411
84,650    106,082    1414
84,640    106,233    1412
84,630    106,367    1410
84,620    106,155    1413
84,610    106,242    1412
84,600    105,949    1416
84,590    106,009    1415
84,580    106,339    1411
84,570    106,224    1412
84,560    106,270    1411
84,550    106,169    1413
84,540    105,995    1415
84,530    106,413    1410
84,520    106,215    1412
84,510    105,977    1415
84,500    106,302    1411
84,490    106,114    1414
84,480    106,362    1410
84,470    106,307    1411
84,460    106,032    1415
84,450    106,275    1411
84,440    106,119    1414
84,430    106,192    1413
84,420    106,302    1411
84,410    105,954    1416
84,400    106,367    1410
84,390    106,087    1414
84,380    106,376    1410
84,370    106,238    1412
84,360    106,050    1414
84,350    106,270    1411
84,340    106,330    1411
84,330    106,275    1411
84,320    106,229    1412
84,310    105,954    1416
84,300    106,279    1411
84,290    106,311    1411
84,280    106,059    1414
84,270    106,311    1411
84,260    106,041    1415
84,250    106,091    1414
84,240    106,394    1410
84,230    106,054    1414
84,220    106,307    1411
84,210    106,009    1415
84,200    106,252    1412
84,190    106,385    1410
84,180    106,187    1413
84,170    106,284    1411
84,160    105,968    1416
84,150    106,123    1413
84,140    106,436    1409
84,130    106,137    1413
84,120    106,238    1412
84,110    106,064    1414
84,100    106,574    1407
84,090    106,583    1407
84,080    106,713    1406
84,070    106,362    1410
84,060    106,390    1410
84,050    106,468    1409
84,040    106,431    1409
84,030    105,917    1416
84,020    106,242    1412
84,010    106,270    1411
84,000    106,302    1411
83,990    106,242    1412
83,980    106,054    1414
83,970    106,238    1412
83,960    106,119    1414
83,950    106,302    1411
83,940    106,279    1411
83,930    105,986    1415
83,920    106,192    1413
83,910    106,082    1414
83,900    106,275    1411
83,890    106,325    1411
83,880    106,041    1415
83,870    106,288    1411
83,860    106,275    1411
83,850    106,197    1412
83,840    106,316    1411
83,830    106,000    1415
83,820    106,100    1414
83,810    106,431    1409
83,800    106,082    1414
83,790    106,288    1411
83,780    106,041    1415
83,770    106,109    1414
83,760    106,334    1411
83,750    106,141    1413
83,740    106,279    1411
83,730    106,141    1413
83,720    106,077    1414
83,710    106,413    1410
83,700    106,242    1412
83,690    106,463    1409
83,680    106,773    1405
83,670    106,806    1404
83,660    106,806    1404
83,650    106,556    1408
83,640    106,732    1405
83,630    106,690    1406
83,620    106,685    1406
83,610    106,463    1409
83,600    106,630    1407
83,590    106,694    1406
83,580    106,537    1408
83,570    106,857    1404
83,560    106,073    1414
83,550    106,206    1412
83,540    106,408    1410
83,530    106,032    1415
83,520    106,206    1412
83,510    106,362    1410
83,500    106,215    1412
83,490    106,330    1411
83,480    105,922    1416
83,470    106,376    1410
83,460    106,132    1413
83,450    106,045    1414
83,440    106,238    1412
83,430    106,119    1414
83,420    106,068    1414
83,410    106,288    1411
83,400    105,990    1415
83,390    106,137    1413
83,380    106,105    1414
83,370    106,087    1414
83,360    106,486    1409
83,350    106,403    1410
83,340    106,344    1411
83,330    106,496    1409
83,320    106,399    1410
83,310    106,468    1409
83,300    106,505    1408
83,290    106,616    1407
83,280    106,123    1413
83,270    106,293    1411
83,260    106,109    1414
83,250    106,192    1413
83,240    106,385    1410
83,230    106,219    1412
83,220    106,436    1409
83,210    106,500    1408
83,200    106,077    1414
83,190    106,096    1414
83,180    106,486    1409
83,170    106,422    1409
83,160    105,867    1417
83,150    106,367    1410
83,140    106,316    1411
83,130    106,275    1411
83,120    106,279    1411
83,110    106,000    1415
83,100    106,242    1412
83,090    106,275    1411
83,080    106,367    1410
83,070    106,570    1408
83,060    106,473    1409
83,050    106,468    1409
83,040    106,927    1403
83,030    106,611    1407
83,020    106,445    1409
83,010    106,611    1407
83,000    106,339    1411
82,990    105,963    1416
82,980    106,128    1413
82,970    106,224    1412
82,960    106,064    1414
82,950    106,440    1409
82,940    106,201    1412
82,930    105,908    1416
82,920    106,210    1412
82,910    106,045    1414
82,900    106,311    1411
82,890    106,256    1412
82,880    106,027    1415
82,870    106,215    1412
82,860    106,302    1411
82,850    106,284    1411
82,840    106,348    1410
82,830    105,840    1417
82,820    106,256    1412
82,810    106,288    1411
82,800    106,261    1412
82,790    106,119    1414
82,780    106,000    1415
82,770    106,219    1412
82,760    106,109    1414
82,750    106,367    1410
82,740    106,219    1412
82,730    106,114    1414
82,720    106,174    1413
82,710    106,206    1412
82,700    106,215    1412
82,690    106,357    1410
82,680    106,114    1414
82,670    106,178    1413
82,660    106,454    1409
82,650    106,009    1415
82,640    106,330    1411
82,630    106,151    1413
82,620    106,045    1414
82,610    106,422    1409
82,600    106,036    1415
82,590    106,032    1415
82,580    106,073    1414
82,570    106,100    1414
82,560    106,482    1409
82,550    106,004    1415
82,540    106,210    1412
82,530    106,050    1414
82,520    106,238    1412
82,510    106,417    1410
82,500    106,087    1414
82,490    106,440    1409
82,480    106,210    1412
82,470    106,045    1414
82,460    106,298    1411
82,450    106,201    1412
82,440    106,050    1414
82,430    106,238    1412
82,420    106,164    1413
82,410    106,422    1409
82,400    106,298    1411
82,390    105,940    1416
82,380    106,206    1412
82,370    106,132    1413
82,360    106,293    1411
82,350    106,390    1410
82,340    105,963    1416
82,330    106,316    1411
82,320    106,169    1413
82,310    106,339    1411
82,300    106,252    1412
82,290    105,968    1416
82,280    106,256    1412
82,270    106,187    1413
82,260    106,307    1411
82,250    106,210    1412
82,240    105,990    1415
82,230    106,233    1412
82,220    106,445    1409
82,210    106,137    1413
82,200    106,238    1412
82,190    106,036    1415
82,180    106,146    1413
82,170    106,371    1410
82,160    106,201    1412
82,150    106,215    1412
82,140    106,100    1414
82,130    106,137    1413
82,120    106,413    1410
82,110    106,160    1413
82,100    106,302    1411
82,090    106,054    1414
82,080    106,422    1409
82,070    106,671    1406
82,060    106,454    1409
82,050    106,215    1412
82,040    106,616    1407
82,030    106,491    1409
82,020    106,519    1408
82,010    106,155    1413
82,000    106,077    1414
81,990    106,192    1413
81,980    106,408    1410
81,970    106,321    1411
81,960    106,588    1407
81,950    106,755    1405
81,940    106,210    1412
81,930    106,344    1411
81,920    106,334    1411
81,910    105,817    1418
81,900    106,298    1411
81,890    106,321    1411
81,880    106,367    1410
81,870    106,270    1411
81,860    106,004    1415
81,850    106,367    1410
81,840    106,197    1412
81,830    106,146    1413
81,820    106,302    1411
81,810    106,068    1414
81,800    106,344    1411
81,790    106,270    1411
81,780    106,279    1411
81,770    106,298    1411
81,760    106,032    1415
81,750    106,284    1411
81,740    106,178    1413
81,730    106,087    1414
81,720    106,219    1412
81,710    105,995    1415
81,700    106,169    1413
81,690    106,394    1410
81,680    106,769    1405
81,670    105,981    1415
81,660    106,247    1412
81,650    106,233    1412
81,640    106,588    1407
81,630    106,713    1406
81,620    106,247    1412
81,610    106,174    1413
81,600    106,334    1411
81,590    106,022    1415
81,580    106,242    1412
81,570    106,183    1413
81,560    106,109    1414
81,550    106,321    1411
81,540    106,096    1414
81,530    106,174    1413
81,520    106,233    1412
81,510    106,105    1414
81,500    106,459    1409
81,490    106,588    1407
81,480    106,403    1410
81,470    106,537    1408
81,460    106,931    1403
81,450    106,570    1408
81,440    106,311    1411
81,430    106,546    1408
81,420    106,330    1411
81,410    106,137    1413
81,400    106,367    1410
81,390    106,082    1414
81,380    106,105    1414
81,370    106,399    1410
81,360    106,087    1414
81,350    106,334    1411
81,340    106,045    1414
81,330    106,068    1414
81,320    106,321    1411
81,310    106,091    1414
81,300    106,247    1412
81,290    106,050    1414
81,280    106,032    1415
81,270    106,270    1411
81,260    106,082    1414
81,250    106,270    1411
81,240    106,068    1414
81,230    106,197    1412
81,220    106,399    1410
81,210    106,137    1413
81,200    106,293    1411
81,190    105,977    1415
81,180    106,348    1410
81,170    106,390    1410
81,160    106,109    1414
81,150    106,201    1412
81,140    106,128    1413
81,130    106,219    1412
81,120    106,316    1411
81,110    105,899    1416
81,100    106,390    1410
81,090    106,431    1409
81,080    106,330    1411
81,070    106,215    1412
81,060    105,926    1416
81,050    106,339    1411
81,040    106,537    1408
81,030    106,371    1410
81,020    106,408    1410
81,010    106,463    1409
81,000    106,233    1412
80,990    106,440    1409
80,980    106,141    1413
80,970    105,990    1415
80,960    106,229    1412
80,950    106,132    1413
80,940    106,302    1411
80,930    106,334    1411
80,920    106,219    1412
80,910    106,215    1412
80,900    106,311    1411
80,890    106,146    1413
80,880    106,256    1412
80,870    106,160    1413
80,860    106,041    1415
80,850    106,238    1412
80,840    106,137    1413
80,830    105,945    1416
80,820    106,399    1410
80,810    106,261    1412
80,800    106,265    1412
80,790    106,238    1412
80,780    106,054    1414
80,770    106,087    1414
80,760    106,353    1410
80,750    106,082    1414
80,740    106,307    1411
80,730    106,288    1411
80,720    106,426    1409
80,710    106,454    1409
80,700    106,528    1408
80,690    106,210    1412
80,680    106,399    1410
80,670    106,551    1408
80,660    106,426    1409
80,650    106,390    1410
80,640    106,376    1410
80,630    106,417    1410
80,620    106,288    1411
80,610    106,178    1413
80,600    106,109    1414
80,590    106,247    1412
80,580    106,183    1413
80,570    106,385    1410
80,560    106,413    1410
80,550    105,981    1415
80,540    106,371    1410
80,530    106,215    1412
80,520    106,394    1410
80,510    106,087    1414
80,500    106,027    1415
80,490    106,210    1412
80,480    106,210    1412
80,470    106,330    1411
80,460    106,174    1413
80,450    105,990    1415
80,440    106,302    1411
80,430    106,210    1412
80,420    106,233    1412
80,410    106,311    1411
80,400    106,036    1415
80,390    106,174    1413
80,380    106,348    1410
80,370    106,174    1413
80,360    106,265    1412
80,350    106,082    1414
80,340    106,238    1412
80,330    106,440    1409
80,320    105,986    1415
80,310    106,247    1412
80,300    106,054    1414
80,290    106,137    1413
80,280    106,367    1410
80,270    106,032    1415
80,260    106,146    1413
80,250    106,114    1414
80,240    106,119    1414
80,230    106,298    1411
80,220    106,009    1415
80,210    106,054    1414
80,200    106,219    1412
80,190    106,197    1412
80,180    106,482    1409
80,170    106,100    1414
80,160    106,155    1413
80,150    106,210    1412
80,140    106,169    1413
80,130    106,339    1411
80,120    106,256    1412
80,110    106,073    1414
80,100    106,169    1413
80,090    105,990    1415
80,080    106,413    1410
80,070    106,505    1408
80,060    106,334    1411
80,050    106,321    1411
80,040    106,178    1413
80,030    106,187    1413
80,020    106,275    1411
80,010    106,041    1415
80,000    106,293    1411
79,990    106,838    1404
79,980    106,192    1413
79,970    106,187    1413
79,960    105,990    1415
79,950    106,109    1414
79,940    106,473    1409
79,930    106,045    1414
79,920    106,247    1412
79,910    106,077    1414
79,900    106,155    1413
79,890    106,380    1410
79,880    106,229    1412
79,870    106,141    1413
79,860    106,119    1414
79,850    106,178    1413
79,840    106,330    1411
79,830    106,224    1412
79,820    106,105    1414
79,810    106,155    1413
79,800    106,013    1415
79,790    106,197    1412
79,780    106,426    1409
79,770    106,137    1413
79,760    106,390    1410
79,750    106,141    1413
79,740    106,325    1411
79,730    106,210    1412
79,720    105,958    1416
79,710    106,367    1410
79,700    106,197    1412
79,690    106,233    1412
79,680    106,279    1411
79,670    106,073    1414
79,660    106,265    1412
79,650    106,279    1411
79,640    106,279    1411
79,630    106,302    1411
79,620    105,940    1416
79,610    106,160    1413
79,600    106,450    1409
79,590    106,224    1412
79,580    106,219    1412
79,570    106,073    1414
79,560    106,054    1414
79,550    106,233    1412
79,540    106,169    1413
79,530    106,353    1410
79,520    106,105    1414
79,510    106,123    1413
79,500    106,426    1409
79,490    106,187    1413
79,480    106,265    1412
79,470    106,128    1413
79,460    106,247    1412
79,450    106,422    1409
79,440    106,073    1414
79,430    106,183    1413
79,420    106,068    1414
79,410    106,431    1409
79,400    106,436    1409
79,390    106,279    1411
79,380    106,036    1415
79,370    106,279    1411
79,360    106,334    1411
79,350    106,344    1411
79,340    106,256    1412
79,330    106,100    1414
79,320    106,371    1410
79,310    106,160    1413
79,300    106,288    1411
79,290    106,284    1411
79,280    106,027    1415
79,270    106,082    1414
79,260    106,403    1410
79,250    106,018    1415
79,240    106,316    1411
79,230    106,183    1413
79,220    106,155    1413
79,210    106,431    1409
79,200    106,027    1415
79,190    106,238    1412
79,180    106,210    1412
79,170    106,201    1412
79,160    106,496    1409
79,150    106,077    1414
79,140    106,073    1414
79,130    106,169    1413
79,120    106,242    1412
79,110    106,417    1410
79,100    106,183    1413
79,090    106,096    1414
79,080    106,215    1412
79,070    106,201    1412
79,060    106,579    1407
79,050    106,745    1405
79,040    106,732    1405
79,030    106,681    1406
79,020    106,759    1405
79,010    106,755    1405
79,000    106,973    1402
78,990    106,810    1404
78,980    106,533    1408
78,970    106,325    1411
78,960    106,018    1415
78,950    106,045    1414
78,940    106,325    1411
78,930    106,178    1413
78,920    106,169    1413
78,910    106,229    1412
78,900    106,247    1412
78,890    106,634    1407
78,880    106,431    1409
78,870    106,197    1412
78,860    106,394    1410
78,850    106,755    1405
78,840    106,367    1410
78,830    106,353    1410
78,820    106,546    1408
78,810    106,119    1414
78,800    106,178    1413
78,790    106,109    1414
78,780    106,045    1414
78,770    106,279    1411
78,760    106,187    1413
78,750    106,073    1414
78,740    106,275    1411
78,730    106,169    1413
78,720    106,219    1412
78,710    106,114    1414
78,700    106,096    1414
78,690    106,265    1412
78,680    106,224    1412
78,670    106,242    1412
78,660    106,210    1412
78,650    106,091    1414
78,640    106,357    1410
78,630    106,146    1413
78,620    106,431    1409
78,610    106,583    1407
78,600    106,307    1411
78,590    106,238    1412
78,580    106,620    1407
78,570    106,330    1411
78,560    106,261    1412
78,550    106,676    1406
78,540    106,394    1410
78,530    105,945    1416
78,520    106,137    1413
78,510    106,050    1414
78,500    106,155    1413
78,490    106,454    1409
78,480    106,265    1412
78,470    106,009    1415
78,460    106,247    1412
78,450    106,215    1412
78,440    106,293    1411
78,430    106,408    1410
78,420    105,922    1416
78,410    106,119    1414
78,400    106,201    1412
78,390    106,201    1412
78,380    106,344    1411
78,370    106,059    1414
78,360    106,183    1413
78,350    106,275    1411
78,340    106,233    1412
78,330    106,542    1408
78,320    106,261    1412
78,310    106,050    1414
78,300    106,482    1409
78,290    106,607    1407
78,280    106,298    1411
78,270    106,500    1408
78,260    106,371    1410
78,250    106,215    1412
78,240    106,164    1413
78,230    106,128    1413
78,220    106,311    1411
78,210    106,284    1411
78,200    106,032    1415
78,190    106,330    1411
78,180    106,022    1415
78,170    105,972    1415
78,160    106,422    1409
78,150    106,229    1412
78,140    106,270    1411
78,130    106,178    1413
78,120    106,068    1414
78,110    106,450    1409
78,100    106,353    1410
78,090    106,151    1413
78,080    106,270    1411
78,070    106,210    1412
78,060    106,238    1412
78,050    106,505    1408
78,040    106,183    1413
78,030    106,265    1412
78,020    106,224    1412
78,010    106,247    1412
78,000    106,542    1408
77,990    106,050    1414
77,980    106,330    1411
77,970    106,206    1412
77,960    106,210    1412
77,950    106,288    1411
77,940    105,995    1415
77,930    106,468    1409
77,920    106,192    1413
77,910    106,201    1412
77,900    106,197    1412
77,890    105,904    1416
77,880    106,523    1408
77,870    106,334    1411
77,860    106,197    1412
77,850    106,367    1410
77,840    106,009    1415
77,830    106,041    1415
77,820    106,311    1411
77,810    106,293    1411
77,800    106,174    1413
77,790    106,215    1412
77,780    106,077    1414
77,770    106,399    1410
77,760    106,183    1413
77,750    106,183    1413
77,740    106,307    1411
77,730    106,367    1410
77,720    106,371    1410
77,710    106,252    1412
77,700    106,141    1413
77,690    106,436    1409
77,680    106,275    1411
77,670    106,242    1412
77,660    106,403    1410
77,650    106,009    1415
77,640    106,417    1410
77,630    106,197    1412
77,620    106,164    1413
77,610    106,238    1412
77,600    105,986    1415
77,590    106,302    1411
77,580    106,316    1411
77,570    106,197    1412
77,560    106,408    1410
77,550    106,119    1414
77,540    106,229    1412
77,530    106,496    1409
77,520    106,233    1412
77,510    106,270    1411
77,500    106,087    1414
77,490    106,722    1406
77,480    106,468    1409
77,470    106,174    1413
77,460    106,151    1413
77,450    106,087    1414
77,440    106,233    1412
77,430    106,367    1410
77,420    106,667    1406
77,410    106,201    1412
77,400    106,224    1412
77,390    106,390    1410
77,380    106,073    1414
77,370    106,123    1413
77,360    106,183    1413
77,350    106,077    1414
77,340    106,238    1412
77,330    106,348    1410
77,320    105,986    1415
77,310    106,380    1410
77,300    106,187    1413
77,290    106,376    1410
77,280    106,371    1410
77,270    106,059    1414
77,260    106,261    1412
77,250    106,105    1414
77,240    106,321    1411
77,230    106,422    1409
77,220    105,945    1416
77,210    106,482    1409
77,200    106,829    1404
77,190    106,625    1407
77,180    106,579    1407
77,170    106,694    1406
77,160    106,922    1403
77,150    106,542    1408
77,140    106,722    1406
77,130    106,769    1405
77,120    106,644    1407
77,110    106,560    1408
77,100    106,630    1407
77,090    106,741    1405
77,080    106,491    1409
77,070    106,514    1408
77,060    106,639    1407
77,050    106,219    1412
77,040    106,399    1410
77,030    106,639    1407
77,020    106,215    1412
77,010    106,197    1412
77,000    106,399    1410
76,990    106,367    1410
76,980    106,279    1411
76,970    106,367    1410
76,960    106,128    1413
76,950    106,187    1413
76,940    106,270    1411
76,930    106,357    1410
76,920    106,486    1409
76,910    106,114    1414
76,900    106,321    1411
76,890    106,293    1411
76,880    106,293    1411
76,870    106,454    1409
76,860    106,155    1413
76,850    106,325    1411
76,840    106,371    1410
76,830    106,064    1414
76,820    106,229    1412
76,810    106,036    1415
76,800    106,302    1411
76,790    106,210    1412
76,780    106,325    1411
76,770    106,371    1410
76,760    106,160    1413
76,750    105,990    1415
76,740    106,413    1410
76,730    106,050    1414
76,720    106,242    1412
76,710    106,183    1413
76,700    106,169    1413
76,690    106,408    1410
76,680    106,096    1414
76,670    106,210    1412
76,660    106,128    1413
76,650    106,128    1413
76,640    106,551    1408
76,630    106,238    1412
76,620    106,132    1413
76,610    106,169    1413
76,600    106,242    1412
76,590    106,284    1411
76,580    106,206    1412
76,570    106,197    1412
76,560    106,288    1411
76,550    106,694    1406
76,540    106,648    1406
76,530    106,565    1408
76,520    106,644    1407
76,510    106,556    1408
76,500    106,806    1404
76,490    106,445    1409
76,480    106,036    1415
76,470    106,311    1411
76,460    106,187    1413
76,450    106,399    1410
76,440    106,477    1409
76,430    106,468    1409
76,420    106,477    1409
76,410    106,570    1408
76,400    106,348    1410
76,390    106,426    1409
76,380    106,639    1407
76,370    106,339    1411
76,360    106,233    1412
76,350    106,123    1413
76,340    106,041    1415
76,330    106,311    1411
76,320    106,252    1412
76,310    106,009    1415
76,300    106,321    1411
76,290    106,394    1410
76,280    106,537    1408
76,270    106,597    1407
76,260    106,533    1408
76,250    106,718    1406
76,240    106,727    1405
76,230    106,815    1404
76,220    106,607    1407
76,210    106,229    1412
76,200    106,082    1414
76,190    106,311    1411
76,180    106,009    1415
76,170    106,284    1411
76,160    106,201    1412
76,150    106,169    1413
76,140    106,528    1408
76,130    105,968    1416
76,120    106,169    1413
76,110    106,339    1411
76,100    106,183    1413
76,090    106,119    1414
76,080    106,000    1415
76,070    106,151    1413
76,060    106,482    1409
76,050    106,050    1414
76,040    106,059    1414
76,030    106,132    1413
76,020    106,197    1412
76,010    106,436    1409
76,000    106,151    1413
75,990    106,270    1411
75,980    106,087    1414
75,970    106,233    1412
75,960    106,463    1409
75,950    106,224    1412
75,940    106,174    1413
75,930    106,261    1412
75,920    106,353    1410
75,910    106,187    1413
75,900    106,059    1414
75,890    106,169    1413
75,880    106,132    1413
75,870    106,252    1412
75,860    106,174    1413
75,850    106,187    1413
75,840    106,288    1411
75,830    106,164    1413
75,820    106,252    1412
75,810    106,279    1411
75,800    106,041    1415
75,790    106,417    1410
75,780    106,206    1412
75,770    106,270    1411
75,760    106,367    1410
75,750    105,972    1415
75,740    106,362    1410
75,730    106,210    1412
75,720    106,252    1412
75,710    106,339    1411
75,700    105,995    1415
75,690    106,371    1410
75,680    106,183    1413
75,670    106,164    1413
75,660    106,247    1412
75,650    106,059    1414
75,640    106,330    1411
75,630    106,242    1412
75,620    106,192    1413
75,610    106,334    1411
75,600    105,913    1416
75,590    106,284    1411
75,580    106,371    1410
75,570    106,183    1413
75,560    106,362    1410
75,550    106,054    1414
75,540    105,958    1416
75,530    106,491    1409
75,520    106,100    1414
75,510    106,265    1412
75,500    106,233    1412
75,490    106,114    1414
75,480    106,422    1409
75,470    106,096    1414
75,460    106,210    1412
75,450    106,183    1413
75,440    106,197    1412
75,430    106,408    1410
75,420    106,013    1415
75,410    106,256    1412
75,400    106,293    1411
75,390    106,330    1411
75,380    106,357    1410
75,370    106,105    1414
75,360    106,325    1411
75,350    106,247    1412
75,340    105,968    1416
75,330    106,426    1409
75,320    106,119    1414
75,310    106,096    1414
75,300    106,334    1411
75,290    106,183    1413
75,280    106,413    1410
75,270    106,426    1409
75,260    106,027    1415
75,250    106,288    1411
75,240    105,990    1415
75,230    106,279    1411
75,220    106,408    1410
75,210    105,917    1416
75,200    106,334    1411
75,190    106,311    1411
75,180    106,215    1412
75,170    106,265    1412
75,160    106,045    1414
75,150    106,477    1409
75,140    106,215    1412
75,130    106,096    1414
75,120    106,215    1412
75,110    105,940    1416
75,100    106,321    1411
75,090    106,178    1413
75,080    106,128    1413
75,070    106,284    1411
75,060    106,059    1414
75,050    106,279    1411
75,040    106,505    1408
75,030    106,155    1413
75,020    106,169    1413
75,010    106,164    1413
75,000    106,082    1414
74,990    106,820    1404
74,980    106,105    1414
74,970    106,036    1415
74,960    106,109    1414
74,950    106,169    1413
74,940    106,339    1411
74,930    106,298    1411
74,920    106,018    1415
74,910    106,146    1413
74,900    106,041    1415
74,890    106,261    1412
74,880    106,229    1412
74,870    105,945    1416
74,860    106,394    1410
74,850    106,119    1414
74,840    106,367    1410
74,830    106,403    1410
74,820    106,160    1413
74,810    106,394    1410
74,800    106,123    1413
74,790    106,339    1411
74,780    106,371    1410
74,770    106,064    1414
74,760    106,224    1412
74,750    106,265    1412
74,740    106,367    1410
74,730    106,201    1412
74,720    106,141    1413
74,710    106,178    1413
74,700    106,657    1406
74,690    106,533    1408
74,680    106,681    1406
74,670    106,806    1404
74,660    106,922    1403
74,650    106,848    1404
74,640    106,022    1415
74,630    106,316    1411
74,620    106,219    1412
74,610    106,288    1411
74,600    106,288    1411
74,590    106,091    1414
74,580    106,339    1411
74,570    106,316    1411
74,560    106,178    1413
74,550    106,339    1411
74,540    106,096    1414
74,530    106,353    1410
74,520    106,275    1411
74,510    105,990    1415
74,500    106,261    1412
74,490    106,105    1414
74,480    106,059    1414
74,470    106,440    1409
74,460    106,155    1413
74,450    106,431    1409
74,440    106,054    1414
74,430    106,091    1414
74,420    106,362    1410
74,410    106,141    1413
74,400    106,330    1411
74,390    106,160    1413
74,380    106,256    1412
74,370    106,284    1411
74,360    106,141    1413
74,350    106,114    1414
74,340    106,160    1413
74,330    106,151    1413
74,320    106,394    1410
74,310    106,114    1414
74,300    106,183    1413
74,290    106,256    1412
74,280    106,050    1414
74,270    106,256    1412
74,260    106,325    1411
74,250    106,187    1413
74,240    106,339    1411
74,230    106,247    1412
74,220    106,321    1411
74,210    106,279    1411
74,200    105,954    1416
74,190    106,344    1411
74,180    106,431    1409
74,170    106,367    1410
74,160    106,325    1411
74,150    106,004    1415
74,140    106,242    1412
74,130    106,311    1411
74,120    106,169    1413
74,110    106,105    1414
74,100    106,114    1414
74,090    106,380    1410
74,080    106,187    1413
74,070    106,261    1412
74,060    106,027    1415
74,050    105,949    1416
74,040    106,403    1410
74,030    106,068    1414
74,020    106,261    1412
74,010    106,238    1412
74,000    106,045    1414
73,990    106,436    1409
73,980    106,064    1414
73,970    106,399    1410
73,960    106,229    1412
73,950    106,100    1414
73,940    106,376    1410
73,930    106,169    1413
73,920    106,160    1413
73,910    106,238    1412
73,900    106,155    1413
73,890    106,376    1410
73,880    106,380    1410
73,870    106,252    1412
73,860    106,468    1409
73,850    106,519    1408
73,840    106,348    1410
73,830    106,265    1412
73,820    106,265    1412
73,810    106,160    1413
73,800    106,247    1412
73,790    106,307    1411
73,780    106,096    1414
73,770    106,284    1411
73,760    106,132    1413
73,750    106,298    1411
73,740    106,265    1412
73,730    106,091    1414
73,720    106,334    1411
73,710    106,247    1412
73,700    106,288    1411
73,690    106,385    1410
73,680    106,009    1415
73,670    106,413    1410
73,660    106,339    1411
73,650    106,357    1410
73,640    106,215    1412
73,630    106,009    1415
73,620    106,247    1412
73,610    106,371    1410
73,600    106,288    1411
73,590    106,376    1410
73,580    106,201    1412
73,570    106,137    1413
73,560    106,270    1411
73,550    106,155    1413
73,540    106,137    1413
73,530    106,073    1414
73,520    106,848    1404
73,510    106,298    1411
73,500    106,265    1412
73,490    106,027    1415
73,480    106,413    1410
73,470    106,164    1413
73,460    106,311    1411
73,450    106,353    1410
73,440    106,201    1412
73,430    106,528    1408
73,420    106,505    1408
73,410    106,160    1413
73,400    106,270    1411
73,390    106,013    1415
73,380    106,077    1414
73,370    106,376    1410
73,360    106,123    1413
73,350    106,261    1412
73,340    106,105    1414
73,330    106,160    1413
73,320    106,325    1411
73,310    106,087    1414
73,300    106,192    1413
73,290    106,367    1410
73,280    106,192    1413
73,270    106,339    1411
73,260    106,238    1412
73,250    106,183    1413
73,240    106,215    1412
73,230    106,119    1414
73,220    106,685    1406
73,210    106,224    1412
73,200    106,100    1414
73,190    106,151    1413
73,180    106,151    1413
73,170    106,311    1411
73,160    106,293    1411
73,150    105,958    1416
73,140    106,330    1411
73,130    106,431    1409
73,120    106,422    1409
73,110    106,137    1413
73,100    106,059    1414
73,090    106,431    1409
73,080    106,321    1411
73,070    106,298    1411
73,060    106,215    1412
73,050    106,082    1414
73,040    106,288    1411
73,030    106,151    1413
73,020    106,367    1410
73,010    106,265    1412
73,000    106,077    1414
72,990    106,233    1412
72,980    106,371    1410
72,970    106,247    1412
72,960    106,137    1413
72,950    106,229    1412
72,940    106,164    1413
72,930    106,261    1412
72,920    106,242    1412
72,910    106,367    1410
72,900    106,151    1413
72,890    106,114    1414
72,880    106,473    1409
72,870    106,105    1414
72,860    106,096    1414
72,850    106,141    1413
72,840    106,160    1413
72,830    106,639    1407
72,820    106,197    1412
72,810    106,279    1411
72,800    106,119    1414
72,790    106,224    1412
72,780    106,533    1408
72,770    106,137    1413
72,760    106,082    1414
72,750    106,105    1414
72,740    106,141    1413
72,730    106,459    1409
72,720    106,233    1412
72,710    106,105    1414
72,700    106,201    1412
72,690    106,041    1415
72,680    106,316    1411
72,670    106,123    1413
72,660    106,146    1413
72,650    106,155    1413
72,640    106,054    1414
72,630    106,348    1410
72,620    106,307    1411
72,610    106,064    1414
72,600    106,390    1410
72,590    106,242    1412
72,580    106,265    1412
72,570    106,390    1410
72,560    105,799    1418
72,550    106,298    1411
72,540    106,339    1411
72,530    106,298    1411
72,520    106,362    1410
72,510    105,968    1416
72,500    106,174    1413
72,490    106,625    1407
72,480    106,178    1413
72,470    106,371    1410
72,460    106,054    1414
72,450    106,197    1412
72,440    106,330    1411
72,430    106,119    1414
72,420    106,311    1411
72,410    106,004    1415
72,400    105,986    1415
72,390    106,399    1410
72,380    106,022    1415
72,370    106,174    1413
72,360    106,174    1413
72,350    106,105    1414
72,340    106,436    1409
72,330    106,128    1413
72,320    106,206    1412
72,310    106,288    1411
72,300    106,018    1415
72,290    106,445    1409
72,280    106,146    1413
72,270    106,141    1413
72,260    106,178    1413
72,250    106,036    1415
72,240    106,357    1410
72,230    106,169    1413
72,220    106,376    1410
72,210    106,247    1412
72,200    106,146    1413
72,190    106,279    1411
72,180    106,224    1412
72,170    106,045    1414
72,160    106,256    1412
72,150    106,100    1414
72,140    106,284    1411
72,130    106,261    1412
72,120    105,995    1415
72,110    106,238    1412
72,100    106,160    1413
72,090    106,284    1411
72,080    106,399    1410
72,070    105,977    1415
72,060    106,059    1414
72,050    106,288    1411
72,040    106,164    1413
72,030    106,293    1411
72,020    106,169    1413
72,010    106,151    1413
72,000    106,579    1407
71,990    106,105    1414
71,980    106,210    1412
71,970    106,174    1413
71,960    106,128    1413
71,950    106,307    1411
71,940    106,256    1412
71,930    106,054    1414
71,920    106,183    1413
71,910    106,192    1413
71,900    106,376    1410
71,890    106,242    1412
71,880    106,013    1415
71,870    106,330    1411
71,860    106,302    1411
71,850    106,233    1412
71,840    106,270    1411
71,830    106,064    1414
71,820    106,325    1411
71,810    106,141    1413
71,800    106,316    1411
71,790    106,265    1412
71,780    105,986    1415
71,770    106,450    1409
71,760    106,871    1404
71,750    106,523    1408
71,740    106,482    1409
71,730    106,639    1407
71,720    107,048    1401
71,710    106,936    1403
71,700    106,694    1406
71,690    106,284    1411
71,680    106,344    1411
71,670    106,288    1411
71,660    106,178    1413
71,650    106,151    1413
71,640    106,810    1404
71,630    106,565    1408
71,620    106,593    1407
71,610    106,718    1406
71,600    106,639    1407
71,590    106,551    1408
71,580    106,500    1408
71,570    106,201    1412
71,560    106,169    1413
71,550    106,275    1411
71,540    105,986    1415
71,530    106,192    1413
71,520    106,169    1413
71,510    106,252    1412
71,500    106,330    1411
71,490    106,311    1411
71,480    106,201    1412
71,470    106,408    1410
71,460    106,440    1409
71,450    106,542    1408
71,440    106,528    1408
71,430    106,238    1412
71,420    106,146    1413
71,410    106,431    1409
71,400    106,247    1412
71,390    106,009    1415
71,380    106,192    1413
71,370    106,160    1413
71,360    106,482    1409
71,350    106,390    1410
71,340    106,178    1413
71,330    106,385    1410
71,320    105,968    1416
71,310    106,330    1411
71,300    106,160    1413
71,290    106,082    1414
71,280    106,348    1410
71,270    106,164    1413
71,260    106,247    1412
71,250    106,265    1412
71,240    105,981    1415
71,230    106,298    1411
71,220    106,238    1412
71,210    106,210    1412
71,200    106,371    1410
71,190    106,279    1411
71,180    106,265    1412
71,170    106,160    1413
71,160    106,445    1409
71,150    106,528    1408
71,140    106,426    1409
71,130    106,459    1409
71,120    106,206    1412
71,110    106,325    1411
71,100    106,054    1414
71,090    106,155    1413
71,080    106,201    1412
71,070    106,004    1415
71,060    106,325    1411
71,050    106,201    1412
71,040    106,082    1414
71,030    106,408    1410
71,020    106,109    1414
71,010    106,064    1414
71,000    106,279    1411
70,990    106,082    1414
70,980    106,413    1410
70,970    106,123    1413
70,960    106,160    1413
70,950    106,380    1410
70,940    106,169    1413
70,930    106,284    1411
70,920    106,087    1414
70,910    106,105    1414
70,900    106,431    1409
70,890    106,119    1414
70,880    106,353    1410
70,870    106,141    1413
70,860    106,128    1413
70,850    106,339    1411
70,840    106,087    1414
70,830    106,330    1411
70,820    106,229    1412
70,810    106,169    1413
70,800    106,362    1410
70,790    106,201    1412
70,780    106,192    1413
70,770    106,178    1413
70,760    106,160    1413
70,750    106,288    1411
70,740    106,197    1412
70,730    106,413    1410
70,720    106,413    1410
70,710    106,141    1413
70,700    106,192    1413
70,690    106,201    1412
70,680    106,265    1412
70,670    106,436    1409
70,660    106,050    1414
70,650    106,307    1411
70,640    106,440    1409
70,630    106,238    1412
70,620    106,229    1412
70,610    106,082    1414
70,600    106,261    1412
70,590    106,302    1411
70,580    106,041    1415
70,570    106,353    1410
70,560    106,087    1414
70,550    106,210    1412
70,540    106,413    1410
70,530    106,169    1413
70,520    106,311    1411
70,510    106,164    1413
70,500    106,105    1414
70,490    106,311    1411
70,480    106,197    1412
70,470    106,316    1411
70,460    106,105    1414
70,450    106,242    1412
70,440    106,371    1410
70,430    106,183    1413
70,420    106,229    1412
70,410    106,050    1414
70,400    106,027    1415
70,390    106,376    1410
70,380    106,261    1412
70,370    105,972    1415
70,360    106,261    1412
70,350    106,197    1412
70,340    106,459    1409
70,330    106,256    1412
70,320    106,041    1415
70,310    106,473    1409
70,300    106,279    1411
70,290    106,353    1410
70,280    106,261    1412
70,270    106,000    1415
70,260    106,376    1410
70,250    106,229    1412
70,240    106,367    1410
70,230    106,261    1412
70,220    106,041    1415
70,210    106,293    1411
70,200    106,219    1412
70,190    106,371    1410
70,180    106,270    1411
70,170    106,032    1415
70,160    106,183    1413
70,150    106,183    1413
70,140    106,321    1411
70,130    106,519    1408
70,120    106,087    1414
70,110    106,380    1410
70,100    106,477    1409
70,090    106,201    1412
70,080    106,201    1412
70,070    106,036    1415
70,060    106,634    1407
70,050    106,894    1403
70,040    106,764    1405
70,030    106,694    1406
70,020    106,745    1405
70,010    106,551    1408
70,000    106,454    1409
69,990    106,367    1410
69,980    106,302    1411
69,970    106,380    1410
69,960    106,298    1411
69,950    106,238    1412
69,940    106,100    1414
69,930    106,496    1409
69,920    106,344    1411
69,910    105,977    1415
69,900    106,376    1410
69,890    106,036    1415
69,880    106,128    1413
69,870    106,298    1411
69,860    106,064    1414
69,850    106,288    1411
69,840    106,073    1414
69,830    106,321    1411
69,820    106,325    1411
69,810    106,648    1406
69,800    105,958    1416
69,790    106,284    1411
69,780    106,339    1411
69,770    106,279    1411
69,760    106,045    1414
69,750    106,128    1413
69,740    106,316    1411
69,730    106,096    1414
69,720    106,380    1410
69,710    106,270    1411
69,700    106,059    1414
69,690    106,325    1411
69,680    106,201    1412
69,670    106,311    1411
69,660    106,192    1413
69,650    106,087    1414
69,640    106,242    1412
69,630    106,174    1413
69,620    106,219    1412
69,610    106,357    1410
69,600    105,995    1415
69,590    106,357    1410
69,580    106,298    1411
69,570    106,109    1414
69,560    106,242    1412
69,550    106,091    1414
69,540    106,192    1413
69,530    106,238    1412
69,520    106,146    1413
69,510    106,183    1413
69,500    106,091    1414
69,490    106,155    1413
69,480    106,385    1410
69,470    106,206    1412
69,460    106,298    1411
69,450    106,141    1413
69,440    106,059    1414
69,430    106,533    1408
69,420    106,206    1412
69,410    106,252    1412
69,400    106,178    1413
69,390    106,201    1412
69,380    106,376    1410
69,370    106,242    1412
69,360    106,302    1411
69,350    106,160    1413
69,340    106,160    1413
69,330    106,348    1410
69,320    107,188    1399
69,310    106,279    1411
69,300    106,114    1414
69,290    106,353    1410
69,280    106,399    1410
69,270    106,027    1415
69,260    106,454    1409
69,250    106,027    1415
69,240    106,357    1410
69,230    106,316    1411
69,220    106,041    1415
69,210    106,380    1410
69,200    106,187    1413
69,190    106,348    1410
69,180    106,514    1408
69,170    106,151    1413
69,160    106,385    1410
69,150    106,394    1410
69,140    106,279    1411
69,130    106,732    1405
69,120    106,852    1404
69,110    107,020    1402
69,100    106,178    1413
69,090    106,233    1412
69,080    106,151    1413
69,070    106,334    1411
69,060    106,302    1411
69,050    106,068    1414
69,040    106,311    1411
69,030    106,426    1409
69,020    106,339    1411
69,010    106,473    1409
69,000    106,215    1412
68,990    106,197    1412
68,980    106,348    1410
68,970    106,141    1413
68,960    106,279    1411
68,950    106,197    1412
68,940    106,155    1413
68,930    106,362    1410
68,920    106,348    1410
68,910    106,210    1412
68,900    106,551    1408
68,890    105,990    1415
68,880    106,431    1409
68,870    106,459    1409
68,860    106,219    1412
68,850    106,371    1410
68,840    106,215    1412
68,830    106,045    1414
68,820    106,357    1410
68,810    106,169    1413
68,800    106,265    1412
68,790    106,032    1415
68,780    106,073    1414
68,770    106,426    1409
68,760    106,160    1413
68,750    106,293    1411
68,740    106,119    1414
68,730    106,100    1414
68,720    106,482    1409
68,710    106,132    1413
68,700    106,325    1411
68,690    106,247    1412
68,680    106,114    1414
68,670    106,339    1411
68,660    106,119    1414
68,650    106,270    1411
68,640    106,169    1413
68,630    106,302    1411
68,620    106,293    1411
68,610    106,325    1411
68,600    106,045    1414
68,590    106,325    1411
68,580    106,330    1411
68,570    106,593    1407
68,560    106,704    1406
68,550    106,602    1407
68,540    106,500    1408
68,530    106,583    1407
68,520    106,871    1404
68,510    106,551    1408
68,500    106,657    1406
68,490    106,945    1403
68,480    106,265    1412
68,470    106,380    1410
68,460    106,376    1410
68,450    106,334    1411
68,440    106,100    1414
68,430    105,954    1416
68,420    106,183    1413
68,410    106,284    1411
68,400    106,367    1410
68,390    106,233    1412
68,380    106,201    1412
68,370    106,321    1411
68,360    106,537    1408
68,350    106,096    1414
68,340    106,403    1410
68,330    105,945    1416
68,320    106,380    1410
68,310    106,339    1411
68,300    106,440    1409
68,290    106,385    1410
68,280    106,588    1407
68,270    106,128    1413
68,260    106,533    1408
68,250    106,667    1406
68,240    106,293    1411
68,230    106,422    1409
68,220    106,607    1407
68,210    106,408    1410
68,200    106,468    1409
68,190    106,519    1408
68,180    106,551    1408
68,170    106,376    1410
68,160    106,597    1407
68,150    106,064    1414
68,140    106,321    1411
68,130    106,376    1410
68,120    106,096    1414
68,110    106,265    1412
68,100    106,128    1413
68,090    106,197    1412
68,080    106,293    1411
68,070    106,132    1413
68,060    106,417    1410
68,050    106,068    1414
68,040    106,064    1414
68,030    106,344    1411
68,020    106,059    1414
68,010    106,256    1412
68,000    106,242    1412
67,990    106,151    1413
67,980    106,431    1409
67,970    106,233    1412
67,960    106,210    1412
67,950    106,275    1411
67,940    106,155    1413
67,930    106,399    1410
67,920    106,114    1414
67,910    106,242    1412
67,900    106,339    1411
67,890    106,169    1413
67,880    106,284    1411
67,870    106,224    1412
67,860    106,183    1413
67,850    106,380    1410
67,840    106,233    1412
67,830    106,422    1409
67,820    106,367    1410
67,810    106,059    1414
67,800    106,344    1411
67,790    106,169    1413
67,780    106,321    1411
67,770    106,330    1411
67,760    106,082    1414
67,750    106,192    1413
67,740    106,252    1412
67,730    106,197    1412
67,720    106,275    1411
67,710    105,954    1416
67,700    106,371    1410
67,690    106,219    1412
67,680    106,114    1414
67,670    106,284    1411
67,660    105,972    1415
67,650    106,357    1410
67,640    106,242    1412
67,630    106,087    1414
67,620    106,450    1409
67,610    106,068    1414
67,600    106,032    1415
67,590    106,376    1410
67,580    106,288    1411
67,570    106,096    1414
67,560    106,119    1414
67,550    106,068    1414
67,540    106,413    1410
67,530    106,137    1413
67,520    106,403    1410
67,510    106,114    1414
67,500    105,926    1416
67,490    106,903    1403
67,480    106,275    1411
67,470    106,114    1414
67,460    106,233    1412
67,450    106,082    1414
67,440    106,431    1409
67,430    106,252    1412
67,420    106,064    1414
67,410    106,440    1409
67,400    106,275    1411
67,390    106,321    1411
67,380    106,454    1409
67,370    106,013    1415
67,360    106,357    1410
67,350    106,247    1412
67,340    106,403    1410
67,330    106,178    1413
67,320    105,981    1415
67,310    106,261    1412
67,300    106,284    1411
67,290    106,357    1410
67,280    106,367    1410
67,270    106,041    1415
67,260    106,238    1412
67,250    106,252    1412
67,240    106,137    1413
67,230    106,293    1411
67,220    106,004    1415
67,210    105,995    1415
67,200    106,385    1410
67,190    106,288    1411
67,180    106,348    1410
67,170    106,463    1409
67,160    106,426    1409
67,150    106,367    1410
67,140    106,551    1408
67,130    106,041    1415
67,120    106,339    1411
67,110    106,215    1412
67,100    106,440    1409
67,090    106,293    1411
67,080    105,849    1417
67,070    106,316    1411
67,060    106,334    1411
67,050    106,311    1411
67,040    106,229    1412
67,030    105,926    1416
67,020    106,284    1411
67,010    106,371    1410
67,000    106,197    1412
66,990    106,265    1412
66,980    106,073    1414
66,970    106,091    1414
66,960    106,362    1410
66,950    106,256    1412
66,940    106,843    1404
66,930    106,192    1413
66,920    106,570    1408
66,910    106,316    1411
66,900    106,004    1415
66,890    106,284    1411
66,880    106,187    1413
66,870    106,210    1412
66,860    106,330    1411
66,850    106,146    1413
66,840    106,270    1411
66,830    106,109    1414
66,820    106,164    1413
66,810    106,279    1411
66,800    106,477    1409
66,790    106,491    1409
66,780    106,755    1405
66,770    106,834    1404
66,760    106,704    1406
66,750    106,787    1405
66,740    106,155    1413
66,730    106,311    1411
66,720    106,059    1414
66,710    106,123    1413
66,700    106,473    1409
66,690    106,027    1415
66,680    106,054    1414
66,670    106,408    1410
66,660    106,027    1415
66,650    106,362    1410
66,640    106,265    1412
66,630    106,128    1413
66,620    106,390    1410
66,610    106,261    1412
66,600    106,091    1414
66,590    106,229    1412
66,580    106,022    1415
66,570    106,422    1409
66,560    106,371    1410
66,550    106,201    1412
66,540    106,348    1410
66,530    106,091    1414
66,520    106,178    1413
66,510    106,403    1410
66,500    106,105    1414
66,490    106,445    1409
66,480    106,155    1413
66,470    105,981    1415
66,460    106,450    1409
66,450    106,302    1411
66,440    106,270    1411
66,430    106,238    1412
66,420    106,109    1414
66,410    106,357    1410
66,400    106,242    1412
66,390    106,215    1412
66,380    106,155    1413
66,370    106,128    1413
66,360    106,426    1409
66,350    106,201    1412
66,340    106,018    1415
66,330    106,197    1412
66,320    106,215    1412
66,310    106,238    1412
66,300    106,339    1411
66,290    106,050    1414
66,280    106,284    1411
66,270    106,123    1413
66,260    106,141    1413
66,250    106,233    1412
66,240    106,096    1414
66,230    106,206    1412
66,220    106,371    1410
66,210    106,164    1413
66,200    106,321    1411
66,190    106,096    1414
66,180    106,009    1415
66,170    106,380    1410
66,160    106,151    1413
66,150    106,123    1413
66,140    106,279    1411
66,130    106,114    1414
66,120    106,279    1411
66,110    106,206    1412
66,100    106,050    1414
66,090    106,192    1413
66,080    106,371    1410
66,070    106,096    1414
66,060    106,114    1414
66,050    106,004    1415
66,040    106,137    1413
66,030    106,431    1409
66,020    106,105    1414
66,010    106,068    1414
66,000    106,174    1413
65,990    106,201    1412
65,980    106,431    1409
65,970    106,197    1412
65,960    105,981    1415
65,950    106,183    1413
65,940    106,197    1412
65,930    106,394    1410
65,920    106,261    1412
65,910    106,027    1415
65,900    106,164    1413
65,890    106,050    1414
65,880    106,385    1410
65,870    106,298    1411
65,860    106,192    1413
65,850    106,229    1412
65,840    106,109    1414
65,830    106,325    1411
65,820    106,229    1412
65,810    105,872    1417
65,800    106,114    1414
65,790    106,348    1410
65,780    106,077    1414
65,770    106,362    1410
65,760    106,160    1413
65,750    106,077    1414
65,740    106,376    1410
65,730    106,096    1414
65,720    106,210    1412
65,710    106,059    1414
65,700    105,968    1416
65,690    106,371    1410
65,680    106,206    1412
65,670    105,990    1415
65,660    106,252    1412
65,650    106,123    1413
65,640    106,413    1410
65,630    106,141    1413
65,620    106,119    1414
65,610    106,339    1411
65,600    106,146    1413
65,590    106,238    1412
65,580    106,390    1410
65,570    105,986    1415
65,560    106,270    1411
65,550    106,141    1413
65,540    106,362    1410
65,530    106,533    1408
65,520    105,908    1416
65,510    106,233    1412
65,500    106,128    1413
65,490    106,339    1411
65,480    106,284    1411
65,470    105,881    1417
65,460    106,413    1410
65,450    106,662    1406
65,440    106,380    1410
65,430    106,477    1409
65,420    106,371    1410
65,410    106,137    1413
65,400    106,505    1408
65,390    106,616    1407
65,380    106,119    1414
65,370    106,620    1407
65,360    106,334    1411
65,350    106,491    1409
65,340    105,981    1415
65,330    106,275    1411
65,320    106,293    1411
65,310    106,114    1414
65,300    106,330    1411
65,290    106,109    1414
65,280    106,261    1412
65,270    106,265    1412
65,260    106,275    1411
65,250    106,288    1411
65,240    106,132    1413
65,230    105,968    1416
65,220    106,394    1410
65,210    106,091    1414
65,200    106,417    1410
65,190    106,105    1414
65,180    106,174    1413
65,170    106,514    1408
65,160    106,064    1414
65,150    106,247    1412
65,140    106,050    1414
65,130    106,307    1411
65,120    106,357    1410
65,110    106,151    1413
65,100    105,958    1416
65,090    106,242    1412
65,080    106,123    1413
65,070    106,362    1410
65,060    106,247    1412
65,050    106,004    1415
65,040    106,265    1412
65,030    106,091    1414
65,020    106,270    1411
65,010    106,096    1414
65,000    106,050    1414
64,990    106,871    1404
64,980    106,256    1412
64,970    106,146    1413
64,960    106,160    1413
64,950    106,105    1414
64,940    106,284    1411
64,930    106,238    1412
64,920    106,348    1410
64,910    106,105    1414
64,900    106,114    1414
64,890    106,219    1412
64,880    106,417    1410
64,870    106,178    1413
64,860    106,146    1413
64,850    106,316    1411
64,840    106,201    1412
64,830    106,431    1409
64,820    106,413    1410
64,810    106,132    1413
64,800    106,224    1412
64,790    105,899    1416
64,780    106,403    1410
64,770    106,284    1411
64,760    106,109    1414
64,750    106,344    1411
64,740    106,045    1414
64,730    106,238    1412
64,720    106,380    1410
64,710    106,018    1415
64,700    106,183    1413
64,690    106,215    1412
64,680    106,302    1411
64,670    106,206    1412
64,660    106,032    1415
64,650    106,298    1411
64,640    106,169    1413
64,630    106,201    1412
64,620    106,362    1410
64,610    106,045    1414
64,600    106,215    1412
64,590    106,413    1410
64,580    106,197    1412
64,570    106,178    1413
64,560    106,482    1409
64,550    106,639    1407
64,540    106,059    1414
64,530    106,330    1411
64,520    106,141    1413
64,510    106,261    1412
64,500    106,399    1410
64,490    106,132    1413
64,480    106,238    1412
64,470    106,311    1411
64,460    106,155    1413
64,450    106,275    1411
64,440    106,206    1412
64,430    106,219    1412
64,420    106,602    1407
64,410    106,311    1411
64,400    106,523    1408
64,390    106,450    1409
64,380    106,141    1413
64,370    106,334    1411
64,360    106,593    1407
64,350    106,109    1414
64,340    106,178    1413
64,330    106,077    1414
64,320    106,077    1414
64,310    106,380    1410
64,300    106,100    1414
64,290    106,210    1412
64,280    106,256    1412
64,270    106,201    1412
64,260    106,109    1414
64,250    106,288    1411
64,240    106,077    1414
64,230    106,155    1413
64,220    106,450    1409
64,210    106,169    1413
64,200    106,307    1411
64,190    105,972    1415
64,180    106,077    1414
64,170    106,316    1411
64,160    106,027    1415
64,150    106,050    1414
64,140    106,109    1414
64,130    106,064    1414
64,120    106,533    1408
64,110    106,032    1415
64,100    106,146    1413
64,090    105,986    1415
64,080    106,132    1413
64,070    106,413    1410
64,060    106,109    1414
64,050    106,160    1413
64,040    106,224    1412
64,030    106,132    1413
64,020    106,556    1408
64,010    106,197    1412
64,000    106,100    1414
63,990    106,270    1411
63,980    106,187    1413
63,970    106,357    1410
63,960    106,270    1411
63,950    106,468    1409
63,940    106,611    1407
63,930    106,736    1405
63,920    106,551    1408
63,910    106,050    1414
63,900    106,380    1410
63,890    106,050    1414
63,880    106,307    1411
63,870    106,160    1413
63,860    106,073    1414
63,850    106,367    1410
63,840    106,206    1412
63,830    106,376    1410
63,820    106,353    1410
63,810    106,164    1413
63,800    106,284    1411
63,790    106,169    1413
63,780    106,174    1413
63,770    106,385    1410
63,760    105,972    1415
63,750    106,380    1410
63,740    106,206    1412
63,730    106,422    1409
63,720    106,174    1413
63,710    106,137    1413
63,700    106,206    1412
63,690    106,523    1408
63,680    106,648    1406
63,670    106,187    1413
63,660    106,593    1407
63,650    106,505    1408
63,640    106,298    1411
63,630    106,639    1407
63,620    106,496    1409
63,610    106,206    1412
63,600    106,565    1408
63,590    106,727    1405
63,580    106,013    1415
63,570    106,210    1412
63,560    106,045    1414
63,550    106,151    1413
63,540    106,362    1410
63,530    106,013    1415
63,520    106,348    1410
63,510    106,215    1412
63,500    106,100    1414
63,490    106,201    1412
63,480    106,105    1414
63,470    106,399    1410
63,460    106,265    1412
63,450    106,105    1414
63,440    106,275    1411
63,430    106,032    1415
63,420    106,288    1411
63,410    106,261    1412
63,400    106,137    1413
63,390    106,390    1410
63,380    105,936    1416
63,370    106,201    1412
63,360    106,390    1410
63,350    106,087    1414
63,340    106,330    1411
63,330    106,087    1414
63,320    106,123    1413
63,310    106,399    1410
63,300    106,247    1412
63,290    106,288    1411
63,280    106,187    1413
63,270    106,022    1415
63,260    106,426    1409
63,250    106,206    1412
63,240    106,252    1412
63,230    106,192    1413
63,220    106,151    1413
63,210    106,293    1411
63,200    106,151    1413
63,190    106,183    1413
63,180    106,206    1412
63,170    106,119    1414
63,160    106,238    1412
63,150    106,275    1411
63,140    106,183    1413
63,130    106,348    1410
63,120    106,210    1412
63,110    106,321    1411
63,100    106,302    1411
63,090    106,041    1415
63,080    106,307    1411
63,070    106,096    1414
63,060    106,192    1413
63,050    106,431    1409
63,040    105,949    1416
63,030    106,325    1411
63,020    106,169    1413
63,010    106,192    1413
63,000    106,385    1410
62,990    105,922    1416
62,980    106,385    1410
62,970    106,210    1412
62,960    106,187    1413
62,950    106,247    1412
62,940    105,926    1416
62,930    106,362    1410
62,920    106,284    1411
62,910    106,123    1413
62,900    106,385    1410
62,890    106,027    1415
62,880    106,229    1412
62,870    106,376    1410
62,860    106,059    1414
62,850    106,192    1413
62,840    106,041    1415
62,830    105,981    1415
62,820    106,385    1410
62,810    106,119    1414
62,800    106,233    1412
62,790    106,151    1413
62,780    105,977    1415
62,770    106,325    1411
62,760    105,986    1415
62,750    106,238    1412
62,740    106,169    1413
62,730    106,105    1414
62,720    106,367    1410
62,710    106,169    1413
62,700    106,164    1413
62,690    106,119    1414
62,680    106,109    1414
62,670    106,769    1405
62,660    106,422    1409
62,650    106,137    1413
62,640    106,422    1409
62,630    106,178    1413
62,620    106,385    1410
62,610    106,399    1410
62,600    106,009    1415
62,590    106,279    1411
62,580    106,082    1414
62,570    106,293    1411
62,560    106,344    1411
62,550    106,022    1415
62,540    106,298    1411
62,530    105,986    1415
62,520    106,316    1411
62,510    106,252    1412
62,500    106,004    1415
62,490    106,588    1407
62,480    106,357    1410
62,470    106,270    1411
62,460    106,440    1409
62,450    106,091    1414
62,440    105,963    1416
62,430    106,385    1410
62,420    106,178    1413
62,410    106,224    1412
62,400    106,114    1414
62,390    106,054    1414
62,380    106,293    1411
62,370    106,215    1412
62,360    106,233    1412
62,350    106,174    1413
62,340    106,128    1413
62,330    106,385    1410
62,320    106,247    1412
62,310    106,187    1413
62,300    106,242    1412
62,290    106,192    1413
62,280    106,390    1410
62,270    106,022    1415
62,260    106,224    1412
62,250    106,348    1410
62,240    106,151    1413
62,230    106,252    1412
62,220    106,132    1413
62,210    105,940    1416
62,200    106,514    1408
62,190    106,477    1409
62,180    106,773    1405
62,170    106,123    1413
62,160    106,353    1410
62,150    106,270    1411
62,140    106,054    1414
62,130    106,367    1410
62,120    106,068    1414
62,110    106,284    1411
62,100    106,755    1405
62,090    106,463    1409
62,080    106,242    1412
62,070    106,681    1406
62,060    106,630    1407
62,050    106,546    1408
62,040    106,417    1410
62,030    106,091    1414
62,020    106,288    1411
62,010    106,371    1410
62,000    106,100    1414
61,990    106,270    1411
61,980    106,050    1414
61,970    106,105    1414
61,960    106,616    1407
61,950    106,417    1410
61,940    106,344    1411
61,930    106,537    1408
61,920    106,298    1411
61,910    106,533    1408
61,900    106,644    1407
61,890    106,616    1407
61,880    106,201    1412
61,870    106,417    1410
61,860    106,233    1412
61,850    106,160    1413
61,840    106,238    1412
61,830    106,036    1415
61,820    106,233    1412
61,810    106,238    1412
61,800    106,009    1415
61,790    106,298    1411
61,780    106,330    1411
61,770    106,201    1412
61,760    106,119    1414
61,750    106,068    1414
61,740    106,367    1410
61,730    106,436    1409
61,720    106,247    1412
61,710    106,105    1414
61,700    106,132    1413
61,690    106,192    1413
61,680    106,068    1414
61,670    106,316    1411
61,660    106,362    1410
61,650    106,036    1415
61,640    106,151    1413
61,630    106,215    1412
61,620    106,224    1412
61,610    106,183    1413
61,600    106,141    1413
61,590    106,141    1413
61,580    106,174    1413
61,570    106,123    1413
61,560    106,344    1411
61,550    106,178    1413
61,540    106,054    1414
61,530    106,357    1410
61,520    106,174    1413
61,510    106,197    1412
61,500    106,022    1415
61,490    106,261    1412
61,480    106,463    1409
61,470    106,201    1412
61,460    106,100    1414
61,450    106,105    1414
61,440    106,201    1412
61,430    106,523    1408
61,420    106,178    1413
61,410    106,311    1411
61,400    106,242    1412
61,390    106,137    1413
61,380    106,371    1410
61,370    106,201    1412
61,360    106,229    1412
61,350    106,242    1412
61,340    106,137    1413
61,330    106,334    1411
61,320    106,616    1407
61,310    106,270    1411
61,300    106,050    1414
61,290    106,238    1412
61,280    106,077    1414
61,270    106,132    1413
61,260    106,376    1410
61,250    106,164    1413
61,240    106,339    1411
61,230    106,436    1409
61,220    106,032    1415
61,210    106,302    1411
61,200    106,183    1413
61,190    106,178    1413
61,180    106,279    1411
61,170    106,077    1414
61,160    106,288    1411
61,150    106,137    1413
61,140    106,367    1410
61,130    106,745    1405
61,120    106,801    1404
61,110    106,197    1412
61,100    106,403    1410
61,090    106,293    1411
61,080    105,977    1415
61,070    106,215    1412
61,060    106,059    1414
61,050    106,256    1412
61,040    106,316    1411
61,030    106,059    1414
61,020    106,394    1410
61,010    106,119    1414
61,000    106,219    1412
60,990    106,431    1409
60,980    106,298    1411
60,970    106,275    1411
60,960    106,690    1406
60,950    106,064    1414
60,940    106,551    1408
60,930    106,219    1412
60,920    106,500    1408
60,910    106,607    1407
60,900    106,671    1406
60,890    106,275    1411
60,880    106,256    1412
60,870    106,068    1414
60,860    106,183    1413
60,850    106,431    1409
60,840    105,940    1416
60,830    106,394    1410
60,820    106,155    1413
60,810    106,132    1413
60,800    106,265    1412
60,790    106,032    1415
60,780    106,307    1411
60,770    106,261    1412
60,760    106,169    1413
60,750    106,325    1411
60,740    106,027    1415
60,730    106,390    1410
60,720    106,325    1411
60,710    106,032    1415
60,700    106,348    1410
60,690    106,013    1415
60,680    106,077    1414
60,670    106,463    1409
60,660    106,187    1413
60,650    106,376    1410
60,640    106,087    1414
60,630    105,954    1416
60,620    106,403    1410
60,610    106,210    1412
60,600    106,187    1413
60,590    106,100    1414
60,580    106,096    1414
60,570    106,408    1410
60,560    106,192    1413
60,550    106,265    1412
60,540    106,119    1414
60,530    106,183    1413
60,520    106,371    1410
60,510    106,087    1414
60,500    106,073    1414
60,490    106,288    1411
60,480    106,169    1413
60,470    106,330    1411
60,460    106,403    1410
60,450    106,096    1414
60,440    106,219    1412
60,430    106,100    1414
60,420    106,293    1411
60,410    106,252    1412
60,400    105,926    1416
60,390    106,431    1409
60,380    106,718    1406
60,370    106,620    1407
60,360    106,454    1409
60,350    106,114    1414
60,340    105,917    1416
60,330    106,256    1412
60,320    106,505    1408
60,310    106,045    1414
60,300    106,450    1409
60,290    106,096    1414
60,280    106,293    1411
60,270    106,307    1411
60,260    105,917    1416
60,250    106,394    1410
60,240    106,151    1413
60,230    106,307    1411
60,220    106,339    1411
60,210    106,077    1414
60,200    106,252    1412
60,190    106,275    1411
60,180    106,316    1411
60,170    106,307    1411
60,160    106,119    1414
60,150    106,247    1412
60,140    106,302    1411
60,130    106,256    1412
60,120    106,399    1410
60,110    106,119    1414
60,100    106,004    1415
60,090    106,325    1411
60,080    106,119    1414
60,070    106,252    1412
60,060    106,082    1414
60,050    106,032    1415
60,040    106,431    1409
60,030    106,032    1415
60,020    106,270    1411
60,010    106,288    1411
60,000    106,174    1413
59,990    106,727    1405
59,980    106,238    1412
59,970    106,022    1415
59,960    106,151    1413
59,950    105,977    1415
59,940    106,380    1410
59,930    106,270    1411
59,920    105,968    1416
59,910    106,174    1413
59,900    106,155    1413
59,890    106,353    1410
59,880    106,362    1410
59,870    106,013    1415
59,860    106,514    1408
59,850    106,265    1412
59,840    106,376    1410
59,830    106,334    1411
59,820    105,908    1416
59,810    106,284    1411
59,800    106,348    1410
59,790    106,376    1410
59,780    106,018    1415
59,770    106,298    1411
59,760    106,027    1415
59,750    106,667    1406
59,740    106,422    1409
59,730    106,718    1406
59,720    106,667    1406
59,710    106,690    1406
59,700    106,644    1407
59,690    106,630    1407
59,680    106,119    1414
59,670    106,288    1411
59,660    106,344    1411
59,650    106,114    1414
59,640    106,390    1410
59,630    106,242    1412
59,620    106,279    1411
59,610    106,362    1410
59,600    105,972    1415
59,590    106,284    1411
59,580    106,491    1409
59,570    106,570    1408
59,560    106,708    1406
59,550    106,565    1408
59,540    106,219    1412
59,530    106,367    1410
59,520    106,242    1412
59,510    106,132    1413
59,500    106,050    1414
59,490    106,417    1410
59,480    106,105    1414
59,470    106,325    1411
59,460    106,219    1412
59,450    106,128    1413
59,440    106,440    1409
59,430    105,981    1415
59,420    106,252    1412
59,410    106,082    1414
59,400    106,242    1412
59,390    106,385    1410
59,380    106,087    1414
59,370    106,265    1412
59,360    106,298    1411
59,350    106,155    1413
59,340    106,371    1410
59,330    106,192    1413
59,320    106,261    1412
59,310    106,275    1411
59,300    106,123    1413
59,290    106,440    1409
59,280    106,298    1411
59,270    105,963    1416
59,260    106,279    1411
59,250    106,311    1411
59,240    106,330    1411
59,230    106,422    1409
59,220    106,059    1414
59,210    106,316    1411
59,200    106,174    1413
59,190    106,394    1410
59,180    106,293    1411
59,170    106,077    1414
59,160    106,219    1412
59,150    106,009    1415
59,140    106,408    1410
59,130    106,380    1410
59,120    106,064    1414
59,110    106,183    1413
59,100    106,298    1411
59,090    106,174    1413
59,080    106,413    1410
59,070    106,174    1413
59,060    106,064    1414
59,050    106,463    1409
59,040    106,141    1413
59,030    106,128    1413
59,020    106,064    1414
59,010    106,087    1414
59,000    106,685    1406
58,990    106,068    1414
58,980    106,192    1413
58,970    106,233    1412
58,960    106,164    1413
58,950    106,362    1410
58,940    106,233    1412
58,930    106,334    1411
58,920    106,667    1406
58,910    106,815    1404
58,900    106,755    1405
58,890    106,408    1410
58,880    106,463    1409
58,870    106,261    1412
58,860    106,215    1412
58,850    106,353    1410
58,840    106,059    1414
58,830    106,178    1413
58,820    106,233    1412
58,810    106,064    1414
58,800    106,348    1410
58,790    106,022    1415
58,780    106,261    1412
58,770    106,537    1408
58,760    106,109    1414
58,750    106,105    1414
58,740    106,123    1413
58,730    106,105    1414
58,720    106,403    1410
58,710    106,082    1414
58,700    106,105    1414
58,690    106,164    1413
58,680    106,109    1414
58,670    106,353    1410
58,660    106,279    1411
58,650    106,468    1409
58,640    106,436    1409
58,630    106,399    1410
58,620    106,528    1408
58,610    106,288    1411
58,600    106,105    1414
58,590    106,119    1414
58,580    106,344    1411
58,570    106,041    1415
58,560    106,371    1410
58,550    106,091    1414
58,540    106,132    1413
58,530    105,853    1417
58,520    106,027    1415
58,510    106,178    1413
58,500    106,178    1413
58,490    106,160    1413
58,480    106,597    1407
58,470    106,119    1414
58,460    106,210    1412
58,450    106,233    1412
58,440    106,197    1412
58,430    106,357    1410
58,420    106,160    1413
58,410    106,233    1412
58,400    106,087    1414
58,390    106,201    1412
58,380    106,473    1409
58,370    106,284    1411
58,360    105,986    1415
58,350    106,417    1410
58,340    106,132    1413
58,330    106,362    1410
58,320    106,238    1412
58,310    106,192    1413
58,300    106,357    1410
58,290    106,041    1415
58,280    106,371    1410
58,270    106,399    1410
58,260    106,316    1411
58,250    106,440    1409
58,240    106,219    1412
58,230    106,284    1411
58,220    106,284    1411
58,210    105,908    1416
58,200    106,334    1411
58,190    106,155    1413
58,180    106,197    1412
58,170    106,256    1412
58,160    106,082    1414
58,150    106,403    1410
58,140    106,408    1410
58,130    106,353    1410
58,120    106,284    1411
58,110    106,059    1414
58,100    106,293    1411
58,090    106,413    1410
58,080    106,252    1412
58,070    106,339    1411
58,060    106,119    1414
58,050    106,123    1413
58,040    106,293    1411
58,030    106,151    1413
58,020    106,334    1411
58,010    106,279    1411
58,000    106,178    1413
57,990    106,385    1410
57,980    106,169    1413
57,970    106,334    1411
57,960    106,114    1414
57,950    106,183    1413
57,940    106,403    1410
57,930    106,284    1411
57,920    106,201    1412
57,910    106,261    1412
57,900    106,100    1414
57,890    106,523    1408
57,880    106,413    1410
57,870    106,238    1412
57,860    106,307    1411
57,850    106,344    1411
57,840    106,169    1413
57,830    106,463    1409
57,820    106,155    1413
57,810    106,270    1411
57,800    106,445    1409
57,790    106,169    1413
57,780    106,348    1410
57,770    106,164    1413
57,760    106,408    1410
57,750    106,307    1411
57,740    106,151    1413
57,730    106,265    1412
57,720    106,376    1410
57,710    106,114    1414
57,700    106,454    1409
57,690    106,247    1412
57,680    106,197    1412
57,670    106,463    1409
57,660    106,339    1411
57,650    106,321    1411
57,640    106,298    1411
57,630    106,169    1413
57,620    106,422    1409
57,610    106,187    1413
57,600    106,426    1409
57,590    106,339    1411
57,580    106,109    1414
57,570    106,394    1410
57,560    106,265    1412
57,550    106,454    1409
57,540    106,528    1408
57,530    106,123    1413
57,520    106,362    1410
57,510    106,468    1409
57,500    106,339    1411
57,490    106,866    1404
57,480    106,201    1412
57,470    106,570    1408
57,460    106,824    1404
57,450    106,741    1405
57,440    106,505    1408
57,430    106,611    1407
57,420    106,922    1403
57,410    106,694    1406
57,400    106,316    1411
57,390    106,261    1412
57,380    106,440    1409
57,370    106,445    1409
57,360    106,284    1411
57,350    106,325    1411
57,340    106,316    1411
57,330    106,367    1410
57,320    106,560    1408
57,310    106,422    1409
57,300    106,662    1406
57,290    106,820    1404
57,280    106,500    1408
57,270    106,238    1412
57,260    106,496    1409
57,250    106,256    1412
57,240    106,671    1406
57,230    106,574    1407
57,220    106,298    1411
57,210    106,514    1408
57,200    106,422    1409
57,190    107,062    1401
57,180    106,959    1402
57,170    106,371    1410
57,160    106,625    1407
57,150    107,305    1398
57,140    108,312    1385
57,130    106,852    1404
57,120    107,146    1400
57,110    115,935    1294
57,100    107,827    1391
57,090    108,618    1381
57,080    133,572    1123
