Z-Pos[um]|R[MOhm]|I[pA]
59,055    106,477    1409
59,045    106,987    1402
59,035    106,298    1411
59,025    106,307    1411
59,015    106,685    1406
59,005    106,164    1413
58,995    106,348    1410
58,985    106,371    1410
58,975    106,413    1410
58,965    106,607    1407
58,955    106,233    1412
58,945    106,653    1406
58,935    106,463    1409
58,925    106,445    1409
58,915    106,491    1409
58,905    106,215    1412
58,895    106,491    1409
58,885    106,339    1411
58,875    106,270    1411
58,865    106,445    1409
58,855    106,367    1410
58,845    106,192    1413
58,835    106,477    1409
58,825    106,486    1409
58,815    106,440    1409
58,805    106,505    1408
58,795    106,091    1414
58,785    106,385    1410
58,775    106,394    1410
58,765    106,141    1413
58,755    106,440    1409
58,745    106,197    1412
58,735    106,371    1410
58,725    106,542    1408
58,715    106,284    1411
58,705    106,403    1410
58,695    106,224    1412
58,685    106,215    1412
58,675    106,722    1406
58,665    106,334    1411
58,655    106,279    1411
58,645    106,261    1412
58,635    106,252    1412
58,625    106,616    1407
58,615    106,298    1411
58,605    106,270    1411
58,595    106,261    1412
58,585    106,380    1410
58,575    106,491    1409
58,565    106,265    1412
58,555    106,215    1412
58,545    106,325    1411
58,535    106,233    1412
58,525    106,491    1409
58,515    106,523    1408
58,505    106,192    1413
58,495    106,588    1407
58,485    106,964    1402
58,475    106,288    1411
58,465    106,477    1409
58,455    106,565    1408
58,445    106,261    1412
58,435    106,570    1408
58,425    106,275    1411
58,415    106,399    1410
58,405    106,151    1413
58,395    106,155    1413
58,385    106,477    1409
58,375    106,307    1411
58,365    106,440    1409
58,355    106,362    1410
58,345    106,197    1412
58,335    106,436    1409
58,325    106,376    1410
58,315    106,261    1412
58,305    106,293    1411
58,295    106,252    1412
58,285    106,426    1409
58,275    106,307    1411
58,265    106,307    1411
58,255    106,477    1409
58,245    106,247    1412
58,235    106,431    1409
58,225    106,509    1408
58,215    106,334    1411
58,205    106,560    1408
58,195    106,607    1407
58,185    106,440    1409
58,175    106,528    1408
58,165    106,390    1410
58,155    106,311    1411
58,145    106,509    1408
58,135    106,371    1410
58,125    106,311    1411
58,115    106,362    1410
58,105    106,174    1413
58,095    106,357    1410
58,085    106,459    1409
58,075    106,192    1413
58,065    106,417    1410
58,055    106,450    1409
58,045    106,357    1410
58,035    106,390    1410
58,025    106,123    1413
58,015    106,307    1411
58,005    106,463    1409
57,995    106,436    1409
57,985    106,261    1412
57,975    105,963    1416
57,965    106,454    1409
57,955    106,380    1410
57,945    106,445    1409
57,935    106,206    1412
57,925    106,109    1414
57,915    106,376    1410
57,905    106,403    1410
57,895    106,450    1409
57,885    106,362    1410
57,875    106,141    1413
57,865    106,385    1410
57,855    106,463    1409
57,845    106,426    1409
57,835    106,491    1409
57,825    106,128    1413
57,815    106,178    1413
57,805    107,104    1401
57,795    106,690    1406
57,785    106,653    1406
57,775    106,588    1407
57,765    106,293    1411
57,755    106,325    1411
57,745    106,390    1410
57,735    106,109    1414
57,725    106,505    1408
57,715    106,275    1411
57,705    106,293    1411
57,695    106,519    1408
57,685    106,302    1411
57,675    106,325    1411
57,665    106,533    1408
57,655    106,288    1411
57,645    106,362    1410
57,635    106,270    1411
57,625    106,132    1413
57,615    106,426    1409
57,605    106,394    1410
57,595    106,528    1408
57,585    106,417    1410
57,575    105,990    1415
57,565    106,551    1408
57,555    106,376    1410
57,545    106,690    1406
57,535    106,261    1412
57,525    106,639    1407
57,515    106,307    1411
57,505    106,325    1411
57,495    106,261    1412
57,485    106,385    1410
57,475    106,690    1406
57,465    106,339    1411
57,455    106,348    1410
57,445    106,247    1412
57,435    106,311    1411
57,425    106,570    1408
57,415    106,500    1408
57,405    106,408    1410
57,395    106,408    1410
57,385    106,307    1411
57,375    106,509    1408
57,365    106,390    1410
57,355    106,436    1409
57,345    106,426    1409
57,335    106,155    1413
57,325    106,708    1406
57,315    106,505    1408
57,305    106,298    1411
57,295    106,644    1407
57,285    106,519    1408
57,275    106,644    1407
57,265    106,630    1407
57,255    106,298    1411
57,245    106,565    1408
57,235    106,426    1409
57,225    106,778    1405
57,215    107,127    1400
57,205    106,422    1409
57,195    106,722    1406
57,185    106,857    1404
57,175    106,764    1405
57,165    106,968    1402
57,155    106,491    1409
57,145    106,968    1402
57,135    107,319    1398
57,125    107,884    1390
57,115    107,160    1400
57,105    106,871    1404
57,095    108,302    1385
57,085    120,666    1243
57,075    129,164    1161
57,065    123,392    1216
