Z-Pos[um]|R[MOhm]|I[pA]
59,038    106,164    1413
59,028    107,048    1401
59,018    106,403    1410
59,008    106,261    1412
58,998    106,238    1412
58,988    106,146    1413
58,978    106,367    1410
58,968    106,210    1412
58,958    106,201    1412
58,948    106,284    1411
58,938    106,353    1410
58,928    106,385    1410
58,918    106,298    1411
58,908    106,330    1411
58,898    106,505    1408
58,888    106,201    1412
58,878    106,417    1410
58,868    106,293    1411
58,858    106,252    1412
58,848    106,385    1410
58,838    106,206    1412
58,828    106,477    1409
58,818    106,403    1410
58,808    106,473    1409
58,798    106,298    1411
58,788    106,722    1406
58,778    106,316    1411
58,768    106,348    1410
58,758    106,445    1409
58,748    106,302    1411
58,738    106,459    1409
58,728    106,426    1409
58,718    106,000    1415
58,708    106,403    1410
58,698    106,533    1408
58,688    106,509    1408
58,678    106,298    1411
58,668    106,169    1413
58,658    106,468    1409
58,648    106,376    1410
58,638    106,450    1409
58,628    106,834    1404
58,618    106,523    1408
58,608    106,694    1406
58,598    106,894    1403
58,588    106,339    1411
58,578    106,215    1412
58,568    106,385    1410
58,558    106,242    1412
58,548    106,477    1409
58,538    106,620    1407
58,528    106,091    1414
58,518    106,371    1410
58,508    106,298    1411
58,498    106,445    1409
58,488    106,579    1407
58,478    106,252    1412
58,468    106,399    1410
58,458    106,376    1410
58,448    106,311    1411
58,438    106,477    1409
58,428    106,151    1413
58,418    106,330    1411
58,408    106,509    1408
58,398    106,357    1410
58,388    106,330    1411
58,378    106,210    1412
58,368    106,334    1411
58,358    106,616    1407
58,348    106,206    1412
58,338    106,339    1411
58,328    106,183    1413
58,318    106,109    1414
58,308    106,385    1410
58,298    106,265    1412
58,288    106,344    1411
58,278    106,390    1410
58,268    106,247    1412
58,258    106,491    1409
58,248    106,408    1410
58,238    106,376    1410
58,228    106,325    1411
58,218    106,252    1412
58,208    106,454    1409
58,198    106,219    1412
58,188    106,403    1410
58,178    106,450    1409
58,168    106,256    1412
58,158    106,454    1409
58,148    106,316    1411
58,138    106,192    1413
58,128    106,473    1409
58,118    106,408    1410
58,108    106,473    1409
58,098    106,344    1411
58,088    106,146    1413
58,078    106,399    1410
58,068    106,321    1411
58,058    106,537    1408
58,048    106,954    1402
58,038    106,699    1406
58,028    106,829    1404
58,018    107,010    1402
58,008    106,982    1402
57,998    106,824    1404
57,988    106,178    1413
57,978    106,579    1407
57,968    106,197    1412
57,958    106,500    1408
57,948    106,302    1411
57,938    106,321    1411
57,928    106,403    1410
57,918    106,288    1411
57,908    106,625    1407
57,898    106,736    1405
57,888    106,764    1405
57,878    106,681    1406
57,868    106,486    1409
57,858    106,477    1409
57,848    106,183    1413
57,838    106,390    1410
57,828    106,528    1408
57,818    106,284    1411
57,808    106,450    1409
57,798    106,293    1411
57,788    106,394    1410
57,778    106,514    1408
57,768    106,219    1412
57,758    106,556    1408
57,748    106,288    1411
57,738    106,339    1411
57,728    106,233    1412
57,718    106,362    1410
57,708    106,417    1410
57,698    106,394    1410
57,688    106,206    1412
57,678    106,187    1413
57,668    106,348    1410
57,658    106,275    1411
57,648    106,311    1411
57,638    106,459    1409
57,628    106,399    1410
57,618    106,311    1411
57,608    106,445    1409
57,598    106,450    1409
57,588    106,440    1409
57,578    106,219    1412
57,568    106,229    1412
57,558    106,593    1407
57,548    106,311    1411
57,538    106,298    1411
57,528    106,270    1411
57,518    106,523    1408
57,508    106,570    1408
57,498    106,242    1412
57,488    106,519    1408
57,478    106,380    1410
57,468    106,514    1408
57,458    106,556    1408
57,448    106,302    1411
57,438    106,593    1407
57,428    106,334    1411
57,418    106,311    1411
57,408    106,519    1408
57,398    106,265    1412
57,388    106,486    1409
57,378    106,454    1409
57,368    106,229    1412
57,358    106,634    1407
57,348    106,560    1408
57,338    106,178    1413
57,328    106,417    1410
57,318    106,611    1407
57,308    106,736    1405
57,298    106,417    1410
57,288    106,334    1411
57,278    106,653    1406
57,268    106,348    1410
57,258    106,662    1406
57,248    106,588    1407
57,238    106,367    1410
57,228    106,681    1406
57,218    106,588    1407
57,208    106,662    1406
57,198    106,579    1407
57,188    106,593    1407
57,178    106,704    1406
57,168    106,741    1405
57,158    106,732    1405
57,148    107,066    1401
57,138    106,611    1407
57,128    106,848    1404
57,118    107,361    1397
57,108    107,108    1400
57,098    107,174    1400
57,088    106,875    1404
57,078    108,088    1388
57,068    107,709    1393
57,058    107,277    1398
57,048    109,597    1369
57,038    109,144    1374
