Z-Pos[um]|R[MOhm]|I[pA]
59,060    106,307    1411
59,050    106,713    1406
59,040    106,288    1411
59,030    106,519    1408
59,020    106,155    1413
59,010    106,325    1411
59,000    106,270    1411
58,990    106,242    1412
58,980    106,261    1412
58,970    106,206    1412
58,960    106,178    1413
58,950    106,334    1411
58,940    105,981    1415
58,930    106,399    1410
58,920    106,000    1415
58,910    106,450    1409
58,900    106,399    1410
58,890    106,128    1413
58,880    106,265    1412
58,870    106,187    1413
58,860    106,082    1414
58,850    106,463    1409
58,840    106,119    1414
58,830    106,302    1411
58,820    106,032    1415
58,810    106,036    1415
58,800    106,403    1410
58,790    106,247    1412
58,780    106,233    1412
58,770    106,187    1413
58,760    106,206    1412
58,750    106,399    1410
58,740    106,137    1413
58,730    106,096    1414
58,720    106,219    1412
58,710    106,307    1411
58,700    106,440    1409
58,690    106,206    1412
58,680    106,514    1408
58,670    106,514    1408
58,660    106,468    1409
58,650    106,408    1410
58,640    106,311    1411
58,630    106,399    1410
58,620    106,068    1414
58,610    106,426    1409
58,600    106,298    1411
58,590    106,192    1413
58,580    106,192    1413
58,570    106,109    1414
58,560    106,403    1410
58,550    106,201    1412
58,540    105,963    1416
58,530    106,302    1411
58,520    106,197    1412
58,510    106,399    1410
58,500    106,385    1410
58,490    106,041    1415
58,480    106,362    1410
58,470    106,109    1414
58,460    106,302    1411
58,450    106,459    1409
58,440    106,579    1407
58,430    106,288    1411
58,420    106,077    1414
58,410    106,279    1411
58,400    106,141    1413
58,390    106,224    1412
58,380    106,417    1410
58,370    106,233    1412
58,360    106,288    1411
58,350    106,219    1412
58,340    106,105    1414
58,330    106,284    1411
58,320    106,206    1412
58,310    106,114    1414
58,300    106,275    1411
58,290    106,096    1414
58,280    106,353    1410
58,270    106,390    1410
58,260    106,004    1415
58,250    106,284    1411
58,240    106,155    1413
58,230    106,593    1407
58,220    106,362    1410
58,210    106,330    1411
58,200    106,385    1410
58,190    106,657    1406
58,180    106,151    1413
58,170    106,616    1407
58,160    106,348    1410
58,150    106,146    1413
58,140    106,261    1412
58,130    106,311    1411
58,120    106,032    1415
58,110    106,514    1408
58,100    106,302    1411
58,090    106,261    1412
58,080    106,450    1409
58,070    106,137    1413
58,060    106,174    1413
58,050    106,353    1410
58,040    106,155    1413
58,030    106,321    1411
58,020    106,224    1412
58,010    106,091    1414
58,000    106,440    1409
57,990    106,206    1412
57,980    106,187    1413
57,970    106,293    1411
57,960    106,087    1414
57,950    106,339    1411
57,940    106,238    1412
57,930    106,293    1411
57,920    106,132    1413
57,910    106,219    1412
57,900    106,367    1410
57,890    106,344    1411
57,880    106,334    1411
57,870    106,325    1411
57,860    106,187    1413
57,850    106,348    1410
57,840    106,201    1412
57,830    106,004    1415
57,820    106,311    1411
57,810    106,155    1413
57,800    106,459    1409
57,790    106,339    1411
57,780    106,082    1414
57,770    106,307    1411
57,760    106,321    1411
57,750    106,519    1408
57,740    106,440    1409
57,730    106,059    1414
57,720    106,514    1408
57,710    106,796    1405
57,700    106,625    1407
57,690    106,708    1406
57,680    106,344    1411
57,670    106,059    1414
57,660    106,371    1410
57,650    106,288    1411
57,640    106,219    1412
57,630    106,302    1411
57,620    106,265    1412
57,610    106,408    1410
57,600    106,533    1408
57,590    106,082    1414
57,580    106,261    1412
57,570    106,362    1410
57,560    106,459    1409
57,550    106,468    1409
57,540    106,027    1415
57,530    106,353    1410
57,520    106,219    1412
57,510    106,298    1411
57,500    106,413    1410
57,490    106,027    1415
57,480    106,357    1410
57,470    106,450    1409
57,460    106,187    1413
57,450    106,500    1408
57,440    106,164    1413
57,430    106,385    1410
57,420    106,348    1410
57,410    106,275    1411
57,400    106,403    1410
57,390    106,146    1413
57,380    106,344    1411
57,370    106,403    1410
57,360    106,197    1412
57,350    106,390    1410
57,340    107,020    1402
57,330    106,242    1412
57,320    106,468    1409
57,310    106,519    1408
57,300    106,123    1413
57,290    106,413    1410
57,280    106,210    1412
57,270    106,459    1409
57,260    106,417    1410
57,250    106,399    1410
57,240    106,741    1405
57,230    107,038    1401
57,220    107,146    1400
57,210    106,690    1406
57,200    106,936    1403
57,190    107,136    1400
57,180    107,239    1399
57,170    106,871    1404
57,160    107,108    1400
57,150    107,403    1397
57,140    107,450    1396
57,130    106,551    1408
57,120    107,521    1395
57,110    107,277    1398
57,100    107,361    1397
57,090    109,222    1373
57,080    107,431    1396
57,070    110,162    1362
57,060    109,670    1368
57,050    111,214    1349
