Z-Pos[um]|R[MOhm]|I[pA]
59,033    106,371    1410
59,023    106,875    1404
59,013    106,330    1411
59,003    106,450    1409
58,993    106,334    1411
58,983    106,174    1413
58,973    106,602    1407
58,963    106,690    1406
58,953    106,436    1409
58,943    106,192    1413
58,933    106,330    1411
58,923    106,270    1411
58,913    106,482    1409
58,903    106,417    1410
58,893    106,261    1412
58,883    106,459    1409
58,873    106,265    1412
58,863    106,413    1410
58,853    106,339    1411
58,843    106,201    1412
58,833    106,390    1410
58,823    106,275    1411
58,813    106,413    1410
58,803    106,311    1411
58,793    106,032    1415
58,783    106,514    1408
58,773    106,408    1410
58,763    106,284    1411
58,753    106,344    1411
58,743    106,160    1413
58,733    106,275    1411
58,723    106,371    1410
58,713    106,334    1411
58,703    106,293    1411
58,693    106,215    1412
58,683    106,390    1410
58,673    106,399    1410
58,663    106,321    1411
58,653    106,390    1410
58,643    106,164    1413
58,633    106,000    1415
58,623    106,454    1409
58,613    106,169    1413
58,603    106,371    1410
58,593    106,261    1412
58,583    106,183    1413
58,573    106,514    1408
58,563    106,298    1411
58,553    106,348    1410
58,543    106,607    1407
58,533    106,256    1412
58,523    106,496    1409
58,513    106,330    1411
58,503    106,353    1410
58,493    106,597    1407
58,483    106,602    1407
58,473    106,565    1408
58,463    106,653    1406
58,453    106,376    1410
58,443    106,473    1409
58,433    106,764    1405
58,423    106,496    1409
58,413    106,394    1410
58,403    106,482    1409
58,393    106,252    1412
58,383    106,344    1411
58,373    106,486    1409
58,363    106,183    1413
58,353    106,445    1409
58,343    106,279    1411
58,333    106,302    1411
58,323    106,473    1409
58,313    106,233    1412
58,303    106,408    1410
58,293    106,426    1409
58,283    106,201    1412
58,273    106,302    1411
58,263    106,210    1412
58,253    106,385    1410
58,243    106,422    1409
58,233    106,114    1414
58,223    106,362    1410
58,213    106,077    1414
58,203    106,468    1409
58,193    106,436    1409
58,183    106,325    1411
58,173    106,339    1411
58,163    106,219    1412
58,153    106,279    1411
58,143    106,413    1410
58,133    106,417    1410
58,123    106,307    1411
58,113    106,183    1413
58,103    106,288    1411
58,093    106,440    1409
58,083    106,242    1412
58,073    106,077    1414
58,063    106,810    1404
58,053    106,537    1408
58,043    106,519    1408
58,033    106,128    1413
58,023    106,463    1409
58,013    106,261    1412
58,003    106,413    1410
57,993    106,334    1411
57,983    106,054    1414
57,973    106,426    1409
57,963    106,252    1412
57,953    106,468    1409
57,943    106,357    1410
57,933    106,068    1414
57,923    106,463    1409
57,913    106,307    1411
57,903    106,408    1410
57,893    106,473    1409
57,883    106,160    1413
57,873    106,367    1410
57,863    106,413    1410
57,853    106,298    1411
57,843    106,759    1405
57,833    106,477    1409
57,823    106,509    1408
57,813    106,676    1406
57,803    106,602    1407
57,793    106,417    1410
57,783    106,690    1406
57,773    106,533    1408
57,763    106,261    1412
57,753    106,330    1411
57,743    106,238    1412
57,733    106,206    1412
57,723    106,390    1410
57,713    106,270    1411
57,703    106,376    1410
57,693    106,546    1408
57,683    106,353    1410
57,673    106,362    1410
57,663    106,229    1412
57,653    106,215    1412
57,643    106,486    1409
57,633    106,330    1411
57,623    106,417    1410
57,613    106,477    1409
57,603    106,132    1413
57,593    106,496    1409
57,583    106,376    1410
57,573    106,477    1409
57,563    106,390    1410
57,553    106,174    1413
57,543    106,450    1409
57,533    106,325    1411
57,523    106,486    1409
57,513    106,261    1412
57,503    106,284    1411
57,493    106,321    1411
57,483    106,279    1411
57,473    106,426    1409
57,463    106,927    1403
57,453    106,685    1406
57,443    106,570    1408
57,433    107,006    1402
57,423    107,108    1400
57,413    106,913    1403
57,403    106,348    1410
57,393    106,537    1408
57,383    106,436    1409
57,373    106,311    1411
57,363    106,542    1408
57,353    106,450    1409
57,343    106,380    1410
57,333    106,385    1410
57,323    106,334    1411
57,313    106,533    1408
57,303    106,477    1409
57,293    106,727    1405
57,283    106,630    1407
57,273    106,454    1409
57,263    106,408    1410
57,253    106,477    1409
57,243    106,588    1407
57,233    106,741    1405
57,223    106,334    1411
57,213    106,523    1408
57,203    107,043    1401
57,193    106,820    1404
57,183    106,745    1405
57,173    106,533    1408
57,163    106,519    1408
57,153    106,792    1405
57,143    106,745    1405
57,133    106,908    1403
57,123    106,681    1406
57,113    106,556    1408
57,103    107,380    1397
57,093    106,959    1402
57,083    106,713    1406
57,073    107,136    1400
57,063    107,136    1400
57,053    125,043    1200
57,043    106,922    1403
57,033    123,188    1218
