Z-Pos[um]|R[MOhm]|I[pA]
61,082    106,681    1406
61,072    106,681    1406
61,062    106,611    1407
61,052    106,119    1414
61,042    106,164    1413
61,032    106,380    1410
61,022    106,353    1410
61,012    106,528    1408
61,002    106,105    1414
60,992    106,123    1413
60,982    106,334    1411
60,972    106,224    1412
60,962    106,215    1412
60,952    106,362    1410
60,942    106,445    1409
60,932    106,941    1403
60,922    106,843    1404
60,912    106,611    1407
60,902    106,486    1409
60,892    106,745    1405
60,882    106,653    1406
60,872    106,109    1414
60,862    106,330    1411
60,852    106,454    1409
60,842    106,238    1412
60,832    106,215    1412
60,822    106,105    1414
60,812    106,041    1415
60,802    106,357    1410
60,792    106,252    1412
60,782    106,233    1412
60,772    106,155    1413
60,762    106,367    1410
60,752    106,519    1408
60,742    106,206    1412
60,732    106,164    1413
60,722    106,091    1414
60,712    106,307    1411
60,702    106,546    1408
60,692    106,183    1413
60,682    106,219    1412
60,672    106,210    1412
60,662    106,187    1413
60,652    107,225    1399
60,642    106,445    1409
60,632    106,197    1412
60,622    106,380    1410
60,612    106,431    1409
60,602    106,275    1411
60,592    106,321    1411
60,582    106,128    1413
60,572    106,408    1410
60,562    106,690    1406
60,552    106,298    1411
60,542    106,399    1410
60,532    106,367    1410
60,522    106,242    1412
60,512    106,348    1410
60,502    106,265    1412
60,492    106,219    1412
60,482    106,500    1408
60,472    106,353    1410
60,462    106,367    1410
60,452    106,174    1413
60,442    106,082    1414
60,432    106,344    1411
60,422    106,330    1411
60,412    106,233    1412
60,402    106,279    1411
60,392    106,114    1414
60,382    106,302    1411
60,372    106,123    1413
60,362    106,357    1410
60,352    106,523    1408
60,342    106,155    1413
60,332    106,307    1411
60,322    106,284    1411
60,312    106,302    1411
60,302    106,385    1410
60,292    105,986    1415
60,282    106,440    1409
60,272    106,325    1411
60,262    106,265    1412
60,252    106,408    1410
60,242    106,073    1414
60,232    106,459    1409
60,222    106,242    1412
60,212    106,077    1414
60,202    106,261    1412
60,192    106,073    1414
60,182    106,132    1413
60,172    106,477    1409
60,162    106,192    1413
60,152    106,348    1410
60,142    106,192    1413
60,132    106,100    1414
60,122    106,426    1409
60,112    106,141    1413
60,102    106,330    1411
60,092    106,215    1412
60,082    106,288    1411
60,072    106,316    1411
60,062    106,197    1412
60,052    106,288    1411
60,042    106,362    1410
60,032    106,330    1411
60,022    106,454    1409
60,012    106,174    1413
60,002    106,229    1412
59,992    106,334    1411
59,982    106,137    1413
59,972    106,486    1409
59,962    106,132    1413
59,952    106,206    1412
59,942    106,353    1410
59,932    106,357    1410
59,922    106,394    1410
59,912    106,496    1409
59,902    106,073    1414
59,892    106,215    1412
59,882    106,087    1414
59,872    106,334    1411
59,862    106,500    1408
59,852    106,252    1412
59,842    106,542    1408
59,832    106,570    1408
59,822    106,750    1405
59,812    106,206    1412
59,802    106,224    1412
59,792    106,229    1412
59,782    106,408    1410
59,772    106,298    1411
59,762    106,013    1415
59,752    106,256    1412
59,742    106,119    1414
59,732    106,288    1411
59,722    106,302    1411
59,712    106,091    1414
59,702    106,334    1411
59,692    106,302    1411
59,682    106,413    1410
59,672    106,496    1409
59,662    106,087    1414
59,652    106,238    1412
59,642    106,155    1413
59,632    106,279    1411
59,622    106,394    1410
59,612    106,009    1415
59,602    106,270    1411
59,592    106,459    1409
59,582    106,750    1405
59,572    106,824    1404
59,562    106,616    1407
59,552    106,713    1406
59,542    107,010    1402
59,532    106,459    1409
59,522    106,583    1407
59,512    106,824    1404
59,502    106,570    1408
59,492    106,602    1407
59,482    106,913    1403
59,472    106,894    1403
59,462    106,045    1414
59,452    106,247    1412
59,442    106,073    1414
59,432    106,247    1412
59,422    106,537    1408
59,412    106,288    1411
59,402    106,357    1410
59,392    106,242    1412
59,382    106,288    1411
59,372    106,523    1408
59,362    106,288    1411
59,352    106,178    1413
59,342    106,852    1404
59,332    106,334    1411
59,322    106,123    1413
59,312    106,059    1414
59,302    106,187    1413
59,292    106,477    1409
59,282    106,164    1413
59,272    106,128    1413
59,262    106,380    1410
59,252    106,197    1412
59,242    106,242    1412
59,232    106,477    1409
59,222    106,219    1412
59,212    106,357    1410
59,202    106,353    1410
59,192    106,708    1406
59,182    106,390    1410
59,172    106,302    1411
59,162    106,105    1414
59,152    106,880    1403
59,142    106,119    1414
59,132    106,155    1413
59,122    106,298    1411
59,112    106,151    1413
59,102    106,445    1409
59,092    106,454    1409
59,082    106,151    1413
59,072    106,229    1412
59,062    106,514    1408
59,052    106,132    1413
59,042    106,311    1411
59,032    105,945    1416
59,022    106,059    1414
59,012    106,348    1410
59,002    106,141    1413
58,992    106,422    1409
58,982    106,091    1414
58,972    106,164    1413
58,962    106,376    1410
58,952    106,325    1411
58,942    106,224    1412
58,932    106,265    1412
58,922    106,242    1412
58,912    106,671    1406
58,902    106,477    1409
58,892    106,334    1411
58,882    106,523    1408
58,872    106,556    1408
58,862    106,505    1408
58,852    106,417    1410
58,842    106,491    1409
58,832    106,588    1407
58,822    106,588    1407
58,812    106,570    1408
58,802    106,357    1410
58,792    106,431    1409
58,782    106,829    1404
58,772    106,838    1404
58,762    106,583    1407
58,752    106,537    1408
58,742    106,509    1408
58,732    106,279    1411
58,722    106,436    1409
58,712    106,164    1413
58,702    106,206    1412
58,692    106,403    1410
58,682    106,311    1411
58,672    106,064    1414
58,662    106,256    1412
58,652    106,123    1413
58,642    106,431    1409
58,632    106,357    1410
58,622    106,160    1413
58,612    106,380    1410
58,602    106,339    1411
58,592    106,390    1410
58,582    106,431    1409
58,572    106,537    1408
58,562    106,353    1410
58,552    106,275    1411
58,542    106,256    1412
58,532    106,215    1412
58,522    105,968    1416
58,512    106,105    1414
58,502    106,367    1410
58,492    106,233    1412
58,482    106,459    1409
58,472    106,174    1413
58,462    106,233    1412
58,452    106,417    1410
58,442    106,146    1413
58,432    106,394    1410
58,422    106,219    1412
58,412    106,348    1410
58,402    106,454    1409
58,392    106,219    1412
58,382    106,316    1411
58,372    106,279    1411
58,362    106,224    1412
58,352    106,436    1409
58,342    106,357    1410
58,332    105,840    1417
58,322    106,238    1412
58,312    106,288    1411
58,302    106,174    1413
58,292    106,009    1415
58,282    106,353    1410
58,272    106,270    1411
58,262    106,293    1411
58,252    106,316    1411
58,242    106,141    1413
58,232    106,357    1410
58,222    106,482    1409
58,212    106,247    1412
58,202    106,454    1409
58,192    106,224    1412
58,182    106,141    1413
58,172    106,390    1410
58,162    106,100    1414
58,152    106,298    1411
58,142    106,155    1413
58,132    106,141    1413
58,122    106,454    1409
58,112    106,160    1413
58,102    106,413    1410
58,092    106,178    1413
58,082    106,620    1407
58,072    106,509    1408
58,062    106,242    1412
58,052    106,036    1415
58,042    106,275    1411
58,032    106,275    1411
58,022    106,403    1410
58,012    106,302    1411
58,002    106,174    1413
57,992    106,348    1410
57,982    106,096    1414
57,972    106,602    1407
57,962    106,408    1410
57,952    106,224    1412
57,942    106,357    1410
57,932    106,045    1414
57,922    106,431    1409
57,912    106,394    1410
57,902    106,187    1413
57,892    106,394    1410
57,882    106,261    1412
57,872    106,376    1410
57,862    106,334    1411
57,852    106,426    1409
57,842    106,247    1412
57,832    106,459    1409
57,822    106,394    1410
57,812    106,192    1413
57,802    106,339    1411
57,792    106,151    1413
57,782    106,496    1409
57,772    106,380    1410
57,762    106,096    1414
57,752    106,413    1410
57,742    106,164    1413
57,732    106,403    1410
57,722    106,450    1409
57,712    106,252    1412
57,702    106,570    1408
57,692    106,087    1414
57,682    106,477    1409
57,672    106,353    1410
57,662    106,160    1413
57,652    106,486    1409
57,642    106,413    1410
57,632    106,403    1410
57,622    106,247    1412
57,612    106,027    1415
57,602    106,390    1410
57,592    106,422    1409
57,582    106,440    1409
57,572    106,500    1408
57,562    106,261    1412
57,552    106,206    1412
57,542    106,482    1409
57,532    106,206    1412
57,522    106,639    1407
57,512    106,376    1410
57,502    106,169    1413
57,492    106,551    1408
57,482    106,431    1409
57,472    106,463    1409
57,462    106,690    1406
57,452    106,565    1408
57,442    106,820    1404
57,432    106,857    1404
57,422    106,704    1406
57,412    106,741    1405
57,402    106,796    1405
57,392    106,852    1404
57,382    106,639    1407
57,372    106,875    1404
57,362    106,871    1404
57,352    106,810    1404
57,342    106,824    1404
57,332    106,778    1405
57,322    106,908    1403
57,312    106,394    1410
57,302    106,265    1412
57,292    106,574    1407
57,282    106,436    1409
57,272    106,657    1406
57,262    106,560    1408
57,252    106,417    1410
57,242    106,570    1408
57,232    106,625    1407
57,222    106,713    1406
57,212    106,908    1403
57,202    106,634    1407
57,192    106,745    1405
57,182    109,164    1374
57,172    106,917    1403
57,162    106,390    1410
57,152    107,474    1396
57,142    130,390    1150
57,132    106,959    1402
57,122    107,984    1389
57,112    111,355    1347
57,102    107,969    1389
57,092    111,790    1342
57,082    108,546    1382
57,072    116,270    1290
