Z-Pos[um]|R[MOhm]|I[pA]
58,974    106,620    1407
58,964    106,792    1405
58,954    106,574    1407
58,944    106,625    1407
58,934    106,482    1409
58,924    106,588    1407
58,914    106,261    1412
58,904    106,468    1409
58,894    106,528    1408
58,884    106,362    1410
58,874    106,519    1408
58,864    106,256    1412
58,854    106,348    1410
58,844    106,523    1408
58,834    106,509    1408
58,824    106,311    1411
58,814    106,413    1410
58,804    106,247    1412
58,794    106,533    1408
58,784    106,440    1409
58,774    106,210    1412
58,764    106,820    1404
58,754    106,380    1410
58,744    106,662    1406
58,734    106,644    1407
58,724    106,671    1406
58,714    106,755    1405
58,704    106,468    1409
58,694    106,247    1412
58,684    106,445    1409
58,674    106,500    1408
58,664    106,533    1408
58,654    106,551    1408
58,644    106,238    1412
58,634    106,491    1409
58,624    106,394    1410
58,614    106,639    1407
58,604    106,486    1409
58,594    106,334    1411
58,584    106,288    1411
58,574    106,385    1410
58,564    106,699    1406
58,554    106,662    1406
58,544    106,252    1412
58,534    106,417    1410
58,524    106,792    1405
58,514    106,565    1408
58,504    106,422    1409
58,494    106,385    1410
58,484    106,560    1408
58,474    106,197    1412
58,464    106,390    1410
58,454    106,321    1411
58,444    106,265    1412
58,434    106,477    1409
58,424    106,339    1411
58,414    106,298    1411
58,404    106,376    1410
58,394    106,413    1410
58,384    106,505    1408
58,374    106,279    1411
58,364    106,390    1410
58,354    106,417    1410
58,344    106,298    1411
58,334    106,491    1409
58,324    106,334    1411
58,314    106,210    1412
58,304    106,473    1409
58,294    106,408    1410
58,284    106,496    1409
58,274    106,570    1408
58,264    106,509    1408
58,254    106,588    1407
58,244    106,611    1407
58,234    106,482    1409
58,224    106,316    1411
58,214    106,183    1413
58,204    106,583    1407
58,194    106,644    1407
58,184    106,293    1411
58,174    106,380    1410
58,164    106,270    1411
58,154    106,284    1411
58,144    106,482    1409
58,134    106,380    1410
58,124    106,371    1410
58,114    106,514    1408
58,104    106,357    1410
58,094    106,390    1410
58,084    106,376    1410
58,074    106,699    1406
58,064    106,908    1403
58,054    106,987    1402
58,044    106,261    1412
58,034    106,325    1411
58,024    106,229    1412
58,014    106,270    1411
58,004    106,505    1408
57,994    106,422    1409
57,984    106,174    1413
57,974    106,436    1409
57,964    106,413    1410
57,954    106,486    1409
57,944    106,500    1408
57,934    106,302    1411
57,924    106,450    1409
57,914    106,380    1410
57,904    106,385    1410
57,894    106,528    1408
57,884    106,151    1413
57,874    106,321    1411
57,864    106,344    1411
57,854    106,321    1411
57,844    106,367    1410
57,834    106,238    1412
57,824    106,607    1407
57,814    106,362    1410
57,804    106,302    1411
57,794    106,390    1410
57,784    106,096    1414
57,774    106,505    1408
57,764    106,385    1410
57,754    106,298    1411
57,744    106,417    1410
57,734    106,215    1412
57,724    106,436    1409
57,714    106,450    1409
57,704    106,399    1410
57,694    106,505    1408
57,684    106,215    1412
57,674    106,261    1412
57,664    106,519    1408
57,654    106,224    1412
57,644    106,459    1409
57,634    106,210    1412
57,624    106,201    1412
57,614    106,523    1408
57,604    106,219    1412
57,594    106,579    1407
57,584    106,206    1412
57,574    106,307    1411
57,564    106,620    1407
57,554    106,284    1411
57,544    106,422    1409
57,534    106,242    1412
57,524    106,219    1412
57,514    106,426    1409
57,504    106,463    1409
57,494    106,431    1409
57,484    106,293    1411
57,474    106,275    1411
57,464    106,500    1408
57,454    106,528    1408
57,444    106,215    1412
57,434    106,353    1410
57,424    106,413    1410
57,414    106,486    1409
57,404    106,339    1411
57,394    106,353    1410
57,384    106,560    1408
57,374    106,459    1409
57,364    106,390    1410
57,354    106,657    1406
57,344    106,454    1409
57,334    106,630    1407
57,324    106,773    1405
57,314    106,565    1408
57,304    106,463    1409
57,294    106,694    1406
57,284    106,238    1412
57,274    106,611    1407
57,264    106,616    1407
57,254    106,390    1410
57,244    106,588    1407
57,234    106,597    1407
57,224    106,570    1408
57,214    106,625    1407
57,204    106,394    1410
57,194    106,574    1407
57,184    106,648    1406
57,174    106,676    1406
57,164    106,565    1408
57,154    106,330    1411
57,144    106,801    1404
57,134    106,593    1407
57,124    106,959    1402
57,114    106,908    1403
57,104    106,639    1407
57,094    106,671    1406
57,084    107,333    1398
57,074    107,488    1396
57,064    106,630    1407
57,054    107,239    1399
57,044    108,079    1388
57,034    107,648    1393
57,024    107,596    1394
57,014    107,408    1397
57,004    113,311    1324
56,994    123,485    1215
