Z-Pos[um]|R[MOhm]|I[pA]
59,045    106,307    1411
59,035    106,694    1406
59,025    106,422    1409
59,015    106,468    1409
59,005    106,408    1410
58,995    106,183    1413
58,985    106,256    1412
58,975    106,298    1411
58,965    106,491    1409
58,955    106,657    1406
58,945    106,413    1410
58,935    106,551    1408
58,925    106,380    1410
58,915    106,316    1411
58,905    106,376    1410
58,895    106,077    1414
58,885    106,426    1409
58,875    106,275    1411
58,865    106,270    1411
58,855    106,454    1409
58,845    106,041    1415
58,835    106,417    1410
58,825    106,293    1411
58,815    106,233    1412
58,805    106,247    1412
58,795    106,357    1410
58,785    106,413    1410
58,775    106,537    1408
58,765    106,459    1409
58,755    106,109    1414
58,745    106,334    1411
58,735    106,339    1411
58,725    106,431    1409
58,715    106,353    1410
58,705    106,954    1402
58,695    106,514    1408
58,685    106,403    1410
58,675    106,334    1411
58,665    106,233    1412
58,655    106,394    1410
58,645    106,399    1410
58,635    106,348    1410
58,625    106,583    1407
58,615    106,307    1411
58,605    106,311    1411
58,595    106,371    1410
58,585    106,477    1409
58,575    106,519    1408
58,565    106,100    1414
58,555    106,174    1413
58,545    106,450    1409
58,535    106,316    1411
58,525    106,440    1409
58,515    106,114    1414
58,505    106,256    1412
58,495    106,408    1410
58,485    106,247    1412
58,475    106,357    1410
58,465    106,630    1407
58,455    106,533    1408
58,445    106,639    1407
58,435    106,736    1405
58,425    106,500    1408
58,415    106,454    1409
58,405    106,523    1408
58,395    106,344    1411
58,385    106,238    1412
58,375    106,238    1412
58,365    106,105    1414
58,355    106,440    1409
58,345    106,477    1409
58,335    106,533    1408
58,325    106,533    1408
58,315    106,551    1408
58,305    106,436    1409
58,295    106,620    1407
58,285    106,505    1408
58,275    106,371    1410
58,265    106,459    1409
58,255    106,298    1411
58,245    106,146    1413
58,235    106,284    1411
58,225    106,288    1411
58,215    106,486    1409
58,205    106,311    1411
58,195    106,178    1413
58,185    106,321    1411
58,175    106,270    1411
58,165    106,533    1408
58,155    106,473    1409
58,145    106,210    1412
58,135    106,459    1409
58,125    106,151    1413
58,115    106,367    1410
58,105    106,371    1410
58,095    106,261    1412
58,085    106,399    1410
58,075    106,321    1411
58,065    106,413    1410
58,055    106,362    1410
58,045    106,348    1410
58,035    106,417    1410
58,025    106,413    1410
58,015    106,123    1413
58,005    106,583    1407
57,995    106,059    1414
57,985    106,353    1410
57,975    106,500    1408
57,965    106,233    1412
57,955    106,445    1409
57,945    106,109    1414
57,935    106,422    1409
57,925    106,477    1409
57,915    106,128    1413
57,905    106,537    1408
57,895    106,132    1413
57,885    106,316    1411
57,875    106,344    1411
57,865    106,298    1411
57,855    106,399    1410
57,845    106,178    1413
57,835    106,100    1414
57,825    106,463    1409
57,815    106,367    1410
57,805    106,403    1410
57,795    106,215    1412
57,785    106,123    1413
57,775    106,302    1411
57,765    106,279    1411
57,755    106,302    1411
57,745    106,380    1410
57,735    106,077    1414
57,725    106,542    1408
57,715    106,298    1411
57,705    106,077    1414
57,695    106,367    1410
57,685    106,422    1409
57,675    106,477    1409
57,665    106,279    1411
57,655    106,321    1411
57,645    106,509    1408
57,635    106,288    1411
57,625    106,380    1410
57,615    106,357    1410
57,605    106,242    1412
57,595    106,367    1410
57,585    106,362    1410
57,575    106,413    1410
57,565    106,560    1408
57,555    106,242    1412
57,545    106,371    1410
57,535    106,334    1411
57,525    106,390    1410
57,515    106,588    1407
57,505    106,367    1410
57,495    106,394    1410
57,485    106,371    1410
57,475    106,362    1410
57,465    106,885    1403
57,455    106,426    1409
57,445    106,570    1408
57,435    106,722    1406
57,425    106,570    1408
57,415    106,482    1409
57,405    106,708    1406
57,395    106,750    1405
57,385    106,583    1407
57,375    106,931    1403
57,365    106,829    1404
57,355    106,908    1403
57,345    106,866    1404
57,335    106,889    1403
57,325    106,759    1405
57,315    106,894    1403
57,305    106,908    1403
57,295    106,903    1403
57,285    106,727    1405
57,275    106,894    1403
57,265    106,537    1408
57,255    106,565    1408
57,245    106,270    1411
57,235    106,496    1409
57,225    106,593    1407
57,215    106,824    1404
57,205    106,385    1410
57,195    106,371    1410
57,185    106,565    1408
57,175    106,597    1407
57,165    106,769    1405
57,155    106,815    1404
57,145    106,681    1406
57,135    106,676    1406
57,125    107,220    1399
57,115    106,690    1406
57,105    106,732    1405
57,095    108,705    1380
57,085    107,258    1398
57,075    107,225    1399
57,065    109,485    1370
57,055    108,012    1389
57,045    110,300    1360
