Z-Pos[um]|R[MOhm]|I[pA]
61,080    106,436    1409
61,070    106,820    1404
61,060    106,344    1411
61,050    106,644    1407
61,040    106,630    1407
61,030    106,681    1406
61,020    106,519    1408
61,010    106,367    1410
61,000    106,091    1414
60,990    106,293    1411
60,980    106,247    1412
60,970    106,376    1410
60,960    106,473    1409
60,950    106,018    1415
60,940    106,261    1412
60,930    106,132    1413
60,920    106,390    1410
60,910    106,316    1411
60,900    106,100    1414
60,890    106,261    1412
60,880    106,385    1410
60,870    106,210    1412
60,860    106,367    1410
60,850    106,119    1414
60,840    106,390    1410
60,830    106,385    1410
60,820    106,132    1413
60,810    106,279    1411
60,800    106,096    1414
60,790    106,344    1411
60,780    106,496    1409
60,770    106,242    1412
60,760    106,440    1409
60,750    106,146    1413
60,740    106,321    1411
60,730    106,261    1412
60,720    106,261    1412
60,710    106,307    1411
60,700    106,164    1413
60,690    106,505    1408
60,680    106,279    1411
60,670    106,114    1414
60,660    106,339    1411
60,650    106,247    1412
60,640    106,394    1410
60,630    106,408    1410
60,620    106,197    1412
60,610    106,408    1410
60,600    106,279    1411
60,590    106,376    1410
60,580    106,445    1409
60,570    106,105    1414
60,560    106,385    1410
60,550    106,431    1409
60,540    106,390    1410
60,530    106,463    1409
60,520    106,210    1412
60,510    106,169    1413
60,500    106,339    1411
60,490    106,321    1411
60,480    106,509    1408
60,470    106,132    1413
60,460    106,390    1410
60,450    106,445    1409
60,440    106,316    1411
60,430    106,192    1413
60,420    106,275    1411
60,410    106,201    1412
60,400    106,371    1410
60,390    106,330    1411
60,380    106,192    1413
60,370    106,468    1409
60,360    106,206    1412
60,350    106,270    1411
60,340    106,174    1413
60,330    106,330    1411
60,320    106,307    1411
60,310    106,325    1411
60,300    106,394    1410
60,290    106,233    1412
60,280    106,018    1415
60,270    106,284    1411
60,260    106,293    1411
60,250    106,325    1411
60,240    106,210    1412
60,230    106,045    1414
60,220    106,233    1412
60,210    106,380    1410
60,200    106,325    1411
60,190    106,233    1412
60,180    106,206    1412
60,170    106,376    1410
60,160    106,574    1407
60,150    106,422    1409
60,140    106,114    1414
60,130    106,348    1410
60,120    106,178    1413
60,110    106,334    1411
60,100    106,570    1408
60,090    106,077    1414
60,080    106,574    1407
60,070    106,459    1409
60,060    106,307    1411
60,050    106,321    1411
60,040    106,109    1414
60,030    106,385    1410
60,020    106,440    1409
60,010    106,206    1412
60,000    106,431    1409
59,990    106,201    1412
59,980    106,192    1413
59,970    106,436    1409
59,960    106,183    1413
59,950    106,316    1411
59,940    106,197    1412
59,930    106,032    1415
59,920    106,288    1411
59,910    106,174    1413
59,900    106,357    1410
59,890    106,155    1413
59,880    106,298    1411
59,870    106,509    1408
59,860    106,123    1413
59,850    106,339    1411
59,840    106,224    1412
59,830    106,390    1410
59,820    106,357    1410
59,810    106,187    1413
59,800    106,160    1413
59,790    106,265    1412
59,780    106,256    1412
59,770    106,380    1410
59,760    106,068    1414
59,750    106,307    1411
59,740    106,367    1410
59,730    106,077    1414
59,720    106,440    1409
59,710    106,348    1410
59,700    106,229    1412
59,690    106,482    1409
59,680    106,385    1410
59,670    106,454    1409
59,660    106,100    1414
59,650    106,187    1413
59,640    106,459    1409
59,630    106,380    1410
59,620    106,593    1407
59,610    106,284    1411
59,600    106,077    1414
59,590    106,344    1411
59,580    106,339    1411
59,570    106,380    1410
59,560    106,408    1410
59,550    106,229    1412
59,540    106,316    1411
59,530    106,380    1410
59,520    106,422    1409
59,510    106,385    1410
59,500    106,105    1414
59,490    106,288    1411
59,480    106,403    1410
59,470    106,252    1412
59,460    106,275    1411
59,450    106,073    1414
59,440    106,215    1412
59,430    106,408    1410
59,420    106,146    1413
59,410    106,339    1411
59,400    106,128    1413
59,390    106,219    1412
59,380    106,519    1408
59,370    106,096    1414
59,360    106,279    1411
59,350    106,215    1412
59,340    106,252    1412
59,330    106,597    1407
59,320    106,215    1412
59,310    106,261    1412
59,300    106,197    1412
59,290    106,413    1410
59,280    106,463    1409
59,270    106,187    1413
59,260    106,311    1411
59,250    106,311    1411
59,240    106,302    1411
59,230    106,732    1405
59,220    106,616    1407
59,210    106,321    1411
59,200    106,625    1407
59,190    106,745    1405
59,180    106,367    1410
59,170    106,574    1407
59,160    106,602    1407
59,150    106,473    1409
59,140    106,657    1406
59,130    106,459    1409
59,120    106,353    1410
59,110    106,436    1409
59,100    106,422    1409
59,090    106,229    1412
59,080    106,417    1410
59,070    106,160    1413
59,060    106,151    1413
59,050    106,413    1410
59,040    106,247    1412
59,030    106,311    1411
59,020    106,380    1410
59,010    106,224    1412
59,000    106,325    1411
58,990    106,482    1409
58,980    106,119    1414
58,970    106,206    1412
58,960    106,565    1408
58,950    106,201    1412
58,940    106,201    1412
58,930    106,210    1412
58,920    106,256    1412
58,910    106,690    1406
58,900    106,201    1412
58,890    106,284    1411
58,880    106,275    1411
58,870    106,123    1413
58,860    106,482    1409
58,850    106,219    1412
58,840    106,032    1415
58,830    106,376    1410
58,820    106,238    1412
58,810    106,288    1411
58,800    106,348    1410
58,790    106,307    1411
58,780    106,413    1410
58,770    106,662    1406
58,760    106,533    1408
58,750    106,482    1409
58,740    106,390    1410
58,730    106,417    1410
58,720    106,699    1406
58,710    106,551    1408
58,700    106,357    1410
58,690    106,491    1409
58,680    106,694    1406
58,670    106,607    1407
58,660    106,570    1408
58,650    106,505    1408
58,640    106,486    1409
58,630    106,616    1407
58,620    106,302    1411
58,610    106,137    1413
58,600    106,403    1410
58,590    106,454    1409
58,580    106,399    1410
58,570    106,783    1405
58,560    106,119    1414
58,550    106,279    1411
58,540    106,380    1410
58,530    106,413    1410
58,520    106,348    1410
58,510    106,091    1414
58,500    106,219    1412
58,490    106,357    1410
58,480    106,376    1410
58,470    106,399    1410
58,460    106,123    1413
58,450    106,334    1411
58,440    106,486    1409
58,430    106,597    1407
58,420    106,334    1411
58,410    106,201    1412
58,400    106,224    1412
58,390    106,574    1407
58,380    106,197    1412
58,370    106,417    1410
58,360    106,325    1411
58,350    106,491    1409
58,340    106,187    1413
58,330    106,307    1411
58,320    106,041    1415
58,310    106,445    1409
58,300    106,238    1412
58,290    106,178    1413
58,280    106,151    1413
58,270    106,279    1411
58,260    106,551    1408
58,250    106,197    1412
58,240    106,210    1412
58,230    106,210    1412
58,220    106,431    1409
58,210    106,546    1408
58,200    106,417    1410
58,190    106,201    1412
58,180    106,593    1407
58,170    106,671    1406
58,160    106,523    1408
58,150    106,265    1412
58,140    106,174    1413
58,130    106,187    1413
58,120    106,422    1409
58,110    106,261    1412
58,100    106,357    1410
58,090    106,256    1412
58,080    106,109    1414
58,070    106,482    1409
58,060    106,496    1409
58,050    106,261    1412
58,040    106,362    1410
58,030    106,279    1411
58,020    106,247    1412
58,010    106,380    1410
58,000    106,206    1412
57,990    106,132    1413
57,980    106,482    1409
57,970    106,307    1411
57,960    106,653    1406
57,950    106,565    1408
57,940    106,399    1410
57,930    106,431    1409
57,920    106,362    1410
57,910    106,261    1412
57,900    106,551    1408
57,890    106,399    1410
57,880    106,357    1410
57,870    106,265    1412
57,860    106,082    1414
57,850    106,556    1408
57,840    106,302    1411
57,830    106,371    1410
57,820    106,321    1411
57,810    106,164    1413
57,800    106,316    1411
57,790    106,270    1411
57,780    106,284    1411
57,770    106,353    1410
57,760    106,210    1412
57,750    106,096    1414
57,740    106,413    1410
57,730    106,334    1411
57,720    106,128    1413
57,710    106,769    1405
57,700    106,736    1405
57,690    106,745    1405
57,680    106,783    1405
57,670    106,936    1403
57,660    106,685    1406
57,650    106,662    1406
57,640    106,778    1405
57,630    106,732    1405
57,620    106,792    1405
57,610    106,773    1405
57,600    106,941    1403
57,590    106,667    1406
57,580    106,681    1406
57,570    106,565    1408
57,560    106,602    1407
57,550    106,146    1413
57,540    106,500    1408
57,530    106,302    1411
57,520    106,616    1407
57,510    106,523    1408
57,500    106,233    1412
57,490    106,376    1410
57,480    106,288    1411
57,470    106,463    1409
57,460    106,500    1408
57,450    106,261    1412
57,440    106,293    1411
57,430    106,450    1409
57,420    106,431    1409
57,410    106,422    1409
57,400    106,155    1413
57,390    106,284    1411
57,380    106,657    1406
57,370    106,376    1410
57,360    106,330    1411
57,350    106,394    1410
57,340    106,362    1410
57,330    106,597    1407
57,320    106,408    1410
57,310    106,293    1411
57,300    106,477    1409
57,290    106,362    1410
57,280    106,625    1407
57,270    106,551    1408
57,260    106,477    1409
57,250    106,607    1407
57,240    106,519    1408
57,230    106,657    1406
57,220    106,727    1405
57,210    106,344    1411
57,200    107,034    1401
57,190    106,848    1404
57,180    106,810    1404
57,170    106,968    1402
57,160    106,708    1406
57,150    106,852    1404
57,140    107,488    1396
57,130    107,010    1402
57,120    106,399    1410
57,110    107,132    1400
57,100    107,747    1392
57,090    107,591    1394
57,080    107,361    1397
57,070    108,820    1378
57,060    108,159    1387
57,050    107,875    1391
57,040    127,021    1181
57,030    113,599    1320
