Z-Pos[um]|R[MOhm]|I[pA]
58,990    106,440    1409
58,980    106,778    1405
58,970    106,261    1412
58,960    106,648    1406
58,950    106,509    1408
58,940    106,330    1411
58,930    106,436    1409
58,920    106,422    1409
58,910    106,528    1408
58,900    106,344    1411
58,890    106,380    1410
58,880    106,357    1410
58,870    106,380    1410
58,860    106,546    1408
58,850    106,496    1409
58,840    106,219    1412
58,830    106,256    1412
58,820    106,390    1410
58,810    106,321    1411
58,800    106,334    1411
58,790    106,183    1413
58,780    106,252    1412
58,770    106,560    1408
58,760    106,344    1411
58,750    106,279    1411
58,740    106,486    1409
58,730    106,385    1410
58,720    106,436    1409
58,710    106,298    1411
58,700    106,183    1413
58,690    106,496    1409
58,680    106,353    1410
58,670    106,367    1410
58,660    106,307    1411
58,650    106,091    1414
58,640    106,417    1410
58,630    106,477    1409
58,620    106,357    1410
58,610    106,477    1409
58,600    106,192    1413
58,590    106,307    1411
58,580    106,380    1410
58,570    106,380    1410
58,560    106,357    1410
58,550    106,210    1412
58,540    106,265    1412
58,530    106,560    1408
58,520    106,123    1413
58,510    106,307    1411
58,500    106,146    1413
58,490    106,284    1411
58,480    106,634    1407
58,470    106,187    1413
58,460    106,403    1410
58,450    106,316    1411
58,440    106,505    1408
58,430    106,422    1409
58,420    106,187    1413
58,410    106,261    1412
58,400    106,353    1410
58,390    106,491    1409
58,380    106,431    1409
58,370    106,321    1411
58,360    106,330    1411
58,350    106,473    1409
58,340    106,390    1410
58,330    106,422    1409
58,320    106,922    1403
58,310    106,174    1413
58,300    106,468    1409
58,290    106,353    1410
58,280    106,206    1412
58,270    106,224    1412
58,260    106,284    1411
58,250    106,528    1408
58,240    106,450    1409
58,230    106,252    1412
58,220    106,334    1411
58,210    106,206    1412
58,200    106,417    1410
58,190    106,390    1410
58,180    106,123    1413
58,170    107,211    1399
58,160    106,556    1408
58,150    106,229    1412
58,140    106,436    1409
58,130    106,348    1410
58,120    106,265    1412
58,110    106,482    1409
58,100    106,270    1411
58,090    106,321    1411
58,080    106,431    1409
58,070    106,275    1411
58,060    106,519    1408
58,050    106,187    1413
58,040    106,321    1411
58,030    106,570    1408
58,020    106,690    1406
58,010    106,801    1404
58,000    106,843    1404
57,990    106,736    1405
57,980    106,866    1404
57,970    106,713    1406
57,960    106,908    1403
57,950    107,066    1401
57,940    106,667    1406
57,930    106,704    1406
57,920    106,718    1406
57,910    106,704    1406
57,900    106,616    1407
57,890    106,330    1411
57,880    106,298    1411
57,870    106,339    1411
57,860    106,380    1410
57,850    106,565    1408
57,840    106,183    1413
57,830    106,261    1412
57,820    106,773    1405
57,810    106,927    1403
57,800    106,820    1404
57,790    106,708    1406
57,780    106,667    1406
57,770    106,922    1403
57,760    106,978    1402
57,750    106,174    1413
57,740    106,440    1409
57,730    106,436    1409
57,720    106,514    1408
57,710    106,459    1409
57,700    106,146    1413
57,690    106,242    1412
57,680    106,542    1408
57,670    106,256    1412
57,660    106,238    1412
57,650    106,183    1413
57,640    106,275    1411
57,630    106,528    1408
57,620    106,459    1409
57,610    106,293    1411
57,600    106,215    1412
57,590    106,284    1411
57,580    106,509    1408
57,570    106,270    1411
57,560    106,279    1411
57,550    106,362    1410
57,540    106,325    1411
57,530    106,505    1408
57,520    106,367    1410
57,510    106,330    1411
57,500    106,357    1410
57,490    106,151    1413
57,480    106,583    1407
57,470    106,542    1408
57,460    106,357    1410
57,450    106,399    1410
57,440    106,408    1410
57,430    106,413    1410
57,420    106,431    1409
57,410    106,197    1412
57,400    106,376    1410
57,390    106,385    1410
57,380    106,546    1408
57,370    106,390    1410
57,360    106,261    1412
57,350    106,316    1411
57,340    106,653    1406
57,330    106,616    1407
57,320    106,607    1407
57,310    106,459    1409
57,300    106,482    1409
57,290    106,509    1408
57,280    106,353    1410
57,270    106,325    1411
57,260    106,454    1409
57,250    106,482    1409
57,240    106,690    1406
57,230    106,436    1409
57,220    106,445    1409
57,210    106,500    1408
57,200    106,514    1408
57,190    106,607    1407
57,180    106,644    1407
57,170    106,403    1410
57,160    106,454    1409
57,150    106,528    1408
57,140    106,699    1406
57,130    106,815    1404
57,120    106,463    1409
57,110    106,634    1407
57,100    107,169    1400
57,090    106,722    1406
57,080    106,704    1406
57,070    106,519    1408
57,060    107,554    1395
57,050    107,202    1399
57,040    106,620    1407
57,030    106,954    1402
57,020    107,408    1397
57,010    113,683    1319
57,000    107,342    1397
56,990    116,557    1287
