Z-Pos[um]|R[MOhm]|I[pA]
59,010    106,445    1409
59,000    106,959    1402
58,990    106,353    1410
58,980    106,546    1408
58,970    106,616    1407
58,960    106,334    1411
58,950    106,574    1407
58,940    106,307    1411
58,930    106,334    1411
58,920    106,667    1406
58,910    106,445    1409
58,900    106,431    1409
58,890    106,302    1411
58,880    106,270    1411
58,870    106,565    1408
58,860    106,528    1408
58,850    106,344    1411
58,840    106,390    1410
58,830    106,302    1411
58,820    106,556    1408
58,810    106,330    1411
58,800    106,348    1410
58,790    106,385    1410
58,780    106,362    1410
58,770    106,463    1409
58,760    106,201    1412
58,750    106,275    1411
58,740    106,463    1409
58,730    106,302    1411
58,720    106,417    1410
58,710    106,256    1412
58,700    106,362    1410
58,690    106,413    1410
58,680    106,417    1410
58,670    106,445    1409
58,660    106,380    1410
58,650    106,265    1412
58,640    106,473    1409
58,630    106,242    1412
58,620    106,357    1410
58,610    106,376    1410
58,600    106,394    1410
58,590    106,261    1412
58,580    106,491    1409
58,570    106,151    1413
58,560    106,634    1407
58,550    106,330    1411
58,540    106,482    1409
58,530    106,344    1411
58,520    106,417    1410
58,510    106,233    1412
58,500    106,505    1408
58,490    106,311    1411
58,480    106,445    1409
58,470    106,394    1410
58,460    106,091    1414
58,450    106,468    1409
58,440    106,417    1410
58,430    106,436    1409
58,420    106,311    1411
58,410    106,496    1409
58,400    106,579    1407
58,390    106,903    1403
58,380    106,270    1411
58,370    106,298    1411
58,360    106,371    1410
58,350    106,229    1412
58,340    106,533    1408
58,330    106,357    1410
58,320    106,256    1412
58,310    106,302    1411
58,300    106,197    1412
58,290    106,348    1410
58,280    106,440    1409
58,270    106,316    1411
58,260    106,151    1413
58,250    106,630    1407
58,240    106,229    1412
58,230    106,302    1411
58,220    106,270    1411
58,210    106,201    1412
58,200    106,486    1409
58,190    106,316    1411
58,180    106,426    1409
58,170    106,486    1409
58,160    106,238    1412
58,150    106,783    1405
58,140    106,367    1410
58,130    106,473    1409
58,120    106,482    1409
58,110    106,408    1410
58,100    106,634    1407
58,090    106,653    1406
58,080    106,339    1411
58,070    106,426    1409
58,060    106,348    1410
58,050    106,546    1408
58,040    106,880    1403
58,030    106,778    1405
58,020    106,773    1405
58,010    106,861    1404
58,000    106,987    1402
57,990    106,690    1406
57,980    106,750    1405
57,970    106,992    1402
57,960    106,838    1404
57,950    106,284    1411
57,940    106,279    1411
57,930    106,625    1407
57,920    106,238    1412
57,910    106,426    1409
57,900    106,316    1411
57,890    106,440    1409
57,880    106,533    1408
57,870    106,403    1410
57,860    106,533    1408
57,850    106,973    1402
57,840    107,132    1400
57,830    106,178    1413
57,820    106,348    1410
57,810    106,899    1403
57,800    106,533    1408
57,790    106,399    1410
57,780    106,229    1412
57,770    106,519    1408
57,760    106,247    1412
57,750    106,560    1408
57,740    106,413    1410
57,730    106,192    1413
57,720    106,454    1409
57,710    106,293    1411
57,700    106,348    1410
57,690    106,348    1410
57,680    106,238    1412
57,670    106,408    1410
57,660    106,477    1409
57,650    106,394    1410
57,640    106,496    1409
57,630    106,169    1413
57,620    106,330    1411
57,610    106,593    1407
57,600    106,298    1411
57,590    106,371    1410
57,580    106,298    1411
57,570    106,399    1410
57,560    106,413    1410
57,550    106,206    1412
57,540    106,500    1408
57,530    106,238    1412
57,520    107,122    1400
57,510    106,519    1408
57,500    106,362    1410
57,490    106,219    1412
57,480    106,537    1408
57,470    106,450    1409
57,460    106,505    1408
57,450    106,380    1410
57,440    106,178    1413
57,430    106,537    1408
57,420    106,528    1408
57,410    106,523    1408
57,400    106,279    1411
57,390    106,270    1411
57,380    106,496    1409
57,370    106,505    1408
57,360    106,468    1409
57,350    106,344    1411
57,340    106,178    1413
57,330    106,426    1409
57,320    106,491    1409
57,310    106,593    1407
57,300    106,542    1408
57,290    106,403    1410
57,280    106,431    1409
57,270    106,667    1406
57,260    106,459    1409
57,250    106,463    1409
57,240    106,334    1411
57,230    106,344    1411
57,220    106,681    1406
57,210    106,477    1409
57,200    106,473    1409
57,190    106,537    1408
57,180    106,436    1409
57,170    106,908    1403
57,160    106,699    1406
57,150    106,620    1407
57,140    106,866    1404
57,130    106,681    1406
57,120    107,178    1400
57,110    106,676    1406
57,100    106,718    1406
57,090    107,653    1393
57,080    107,015    1402
57,070    106,973    1402
57,060    107,305    1398
57,050    108,690    1380
57,040    113,615    1320
57,030    108,546    1382
57,020    2620,040    57
