Z-Pos[um]|R[MOhm]|I[pA]
59,078    106,403    1410
59,068    106,704    1406
59,058    106,533    1408
59,048    106,265    1412
59,038    106,450    1409
59,028    106,537    1408
59,018    106,155    1413
59,008    106,440    1409
58,998    106,169    1413
58,988    106,403    1410
58,978    106,426    1409
58,968    105,977    1415
58,958    106,473    1409
58,948    106,132    1413
58,938    106,302    1411
58,928    106,505    1408
58,918    106,155    1413
58,908    106,496    1409
58,898    106,261    1412
58,888    106,252    1412
58,878    106,880    1403
58,868    106,123    1413
58,858    106,371    1410
58,848    106,676    1406
58,838    106,215    1412
58,828    106,579    1407
58,818    106,252    1412
58,808    106,344    1411
58,798    106,671    1406
58,788    106,616    1407
58,778    106,353    1410
58,768    106,426    1409
58,758    106,279    1411
58,748    106,238    1412
58,738    106,265    1412
58,728    106,210    1412
58,718    106,436    1409
58,708    107,474    1396
58,698    106,505    1408
58,688    106,288    1411
58,678    106,339    1411
58,668    106,486    1409
58,658    106,708    1406
58,648    106,824    1404
58,638    106,880    1403
58,628    106,894    1403
58,618    106,736    1405
58,608    106,750    1405
58,598    106,871    1404
58,588    106,279    1411
58,578    106,445    1409
58,568    106,454    1409
58,558    106,100    1414
58,548    106,311    1411
58,538    106,321    1411
58,528    106,500    1408
58,518    106,408    1410
58,508    106,229    1412
58,498    106,367    1410
58,488    106,463    1409
58,478    106,371    1410
58,468    106,293    1411
58,458    106,307    1411
58,448    106,279    1411
58,438    106,394    1410
58,428    107,099    1401
58,418    106,219    1412
58,408    106,362    1410
58,398    106,261    1412
58,388    106,528    1408
58,378    106,394    1410
58,368    106,164    1413
58,358    106,394    1410
58,348    106,459    1409
58,338    106,394    1410
58,328    106,413    1410
58,318    106,256    1412
58,308    106,302    1411
58,298    106,616    1407
58,288    106,394    1410
58,278    106,533    1408
58,268    106,325    1411
58,258    106,367    1410
58,248    106,597    1407
58,238    106,279    1411
58,228    106,206    1412
58,218    106,316    1411
58,208    106,183    1413
58,198    106,509    1408
58,188    106,261    1412
58,178    106,426    1409
58,168    106,279    1411
58,158    106,164    1413
58,148    106,560    1408
58,138    106,477    1409
58,128    106,560    1408
58,118    106,408    1410
58,108    106,261    1412
58,098    106,509    1408
58,088    106,201    1412
58,078    106,307    1411
58,068    106,385    1410
58,058    106,302    1411
58,048    106,399    1410
58,038    106,445    1409
58,028    106,229    1412
58,018    106,741    1405
58,008    106,491    1409
57,998    106,482    1409
57,988    106,376    1410
57,978    107,080    1401
57,968    106,759    1405
57,958    106,992    1402
57,948    106,634    1407
57,938    106,119    1414
57,928    106,408    1410
57,918    106,722    1406
57,908    106,307    1411
57,898    106,542    1408
57,888    106,256    1412
57,878    106,279    1411
57,868    106,519    1408
57,858    106,137    1413
57,848    106,293    1411
57,838    106,155    1413
57,828    106,141    1413
57,818    106,560    1408
57,808    106,302    1411
57,798    106,357    1410
57,788    106,325    1411
57,778    106,307    1411
57,768    106,500    1408
57,758    106,431    1409
57,748    106,445    1409
57,738    106,367    1410
57,728    106,330    1411
57,718    106,454    1409
57,708    106,192    1413
57,698    106,325    1411
57,688    106,431    1409
57,678    106,137    1413
57,668    106,454    1409
57,658    106,477    1409
57,648    106,242    1412
57,638    106,533    1408
57,628    106,321    1411
57,618    106,546    1408
57,608    106,607    1407
57,598    106,146    1413
57,588    106,454    1409
57,578    106,270    1411
57,568    106,519    1408
57,558    106,454    1409
57,548    106,114    1414
57,538    106,505    1408
57,528    106,978    1402
57,518    106,486    1409
57,508    106,436    1409
57,498    106,233    1412
57,488    106,376    1410
57,478    106,588    1407
57,468    106,482    1409
57,458    106,542    1408
57,448    106,486    1409
57,438    106,215    1412
57,428    106,662    1406
57,418    106,279    1411
57,408    106,509    1408
57,398    106,288    1411
57,388    106,311    1411
57,378    106,588    1407
57,368    106,403    1410
57,358    106,509    1408
57,348    106,371    1410
57,338    106,362    1410
57,328    106,639    1407
57,318    106,330    1411
57,308    106,390    1410
57,298    106,325    1411
57,288    106,394    1410
57,278    106,607    1407
57,268    106,344    1411
57,258    106,546    1408
57,248    106,413    1410
57,238    106,403    1410
57,228    106,722    1406
57,218    106,597    1407
57,208    106,468    1409
57,198    106,662    1406
57,188    106,722    1406
57,178    106,783    1405
57,168    106,848    1404
57,158    106,787    1405
57,148    107,164    1400
57,138    106,676    1406
57,128    107,164    1400
57,118    107,431    1396
57,108    107,034    1401
57,098    107,150    1400
57,088    107,568    1394
57,078    110,394    1359
57,068    108,796    1379
57,058    126,031    1190
