Z-Pos[um]|R[MOhm]|I[pA]
59,052    106,496    1409
59,042    106,941    1403
59,032    106,357    1410
59,022    106,616    1407
59,012    106,348    1410
59,002    106,528    1408
58,992    106,307    1411
58,982    106,265    1412
58,972    106,403    1410
58,962    106,311    1411
58,952    106,523    1408
58,942    106,477    1409
58,932    106,288    1411
58,922    106,371    1410
58,912    106,279    1411
58,902    106,477    1409
58,892    106,528    1408
58,882    106,155    1413
58,872    106,403    1410
58,862    106,344    1411
58,852    106,450    1409
58,842    106,537    1408
58,832    106,187    1413
58,822    106,339    1411
58,812    106,537    1408
58,802    106,436    1409
58,792    106,463    1409
58,782    106,146    1413
58,772    106,486    1409
58,762    106,699    1406
58,752    106,542    1408
58,742    106,426    1409
58,732    106,671    1406
58,722    106,579    1407
58,712    106,597    1407
58,702    106,380    1410
58,692    106,247    1412
58,682    106,311    1411
58,672    106,440    1409
58,662    106,431    1409
58,652    106,653    1406
58,642    106,132    1413
58,632    106,256    1412
58,622    106,505    1408
58,612    106,242    1412
58,602    106,316    1411
58,592    106,233    1412
58,582    106,229    1412
58,572    106,440    1409
58,562    106,579    1407
58,552    107,029    1401
58,542    106,556    1408
58,532    106,685    1406
58,522    106,523    1408
58,512    106,022    1415
58,502    106,325    1411
58,492    106,321    1411
58,482    106,413    1410
58,472    106,436    1409
58,462    106,027    1415
58,452    106,353    1410
58,442    106,261    1412
58,432    106,229    1412
58,422    106,399    1410
58,412    106,141    1413
58,402    106,270    1411
58,392    106,579    1407
58,382    106,238    1412
58,372    106,270    1411
58,362    106,169    1413
58,352    106,371    1410
58,342    106,482    1409
58,332    106,546    1408
58,322    106,417    1410
58,312    106,486    1409
58,302    106,634    1407
58,292    106,634    1407
58,282    106,311    1411
58,272    106,298    1411
58,262    106,252    1412
58,252    106,496    1409
58,242    106,155    1413
58,232    106,284    1411
58,222    106,454    1409
58,212    106,284    1411
58,202    106,459    1409
58,192    106,662    1406
58,182    106,109    1414
58,172    106,394    1410
58,162    106,399    1410
58,152    106,583    1407
58,142    106,486    1409
58,132    106,151    1413
58,122    106,620    1407
58,112    106,500    1408
58,102    106,699    1406
58,092    106,843    1404
58,082    106,727    1405
58,072    106,694    1406
58,062    106,699    1406
58,052    106,477    1409
58,042    106,141    1413
58,032    106,233    1412
58,022    106,514    1408
58,012    106,390    1410
58,002    106,339    1411
57,992    106,293    1411
57,982    106,265    1412
57,972    106,431    1409
57,962    106,570    1408
57,952    106,348    1410
57,942    106,431    1409
57,932    106,371    1410
57,922    106,625    1407
57,912    106,426    1409
57,902    106,109    1414
57,892    106,367    1410
57,882    106,325    1411
57,872    106,399    1410
57,862    106,450    1409
57,852    106,123    1413
57,842    106,454    1409
57,832    106,394    1410
57,822    106,390    1410
57,812    106,565    1408
57,802    106,123    1413
57,792    106,334    1411
57,782    106,514    1408
57,772    106,247    1412
57,762    106,367    1410
57,752    106,279    1411
57,742    106,436    1409
57,732    106,344    1411
57,722    106,146    1413
57,712    106,519    1408
57,702    106,178    1413
57,692    106,298    1411
57,682    106,509    1408
57,672    106,367    1410
57,662    106,426    1409
57,652    106,325    1411
57,642    106,219    1412
57,632    106,718    1406
57,622    106,288    1411
57,612    106,339    1411
57,602    106,261    1412
57,592    106,353    1410
57,582    106,500    1408
57,572    106,399    1410
57,562    106,394    1410
57,552    106,279    1411
57,542    106,210    1412
57,532    106,537    1408
57,522    106,390    1410
57,512    106,201    1412
57,502    106,362    1410
57,492    106,265    1412
57,482    106,353    1410
57,472    106,519    1408
57,462    106,197    1412
57,452    106,505    1408
57,442    106,473    1409
57,432    106,491    1409
57,422    106,380    1410
57,412    106,233    1412
57,402    106,426    1409
57,392    106,509    1408
57,382    106,533    1408
57,372    106,496    1409
57,362    106,233    1412
57,352    106,491    1409
57,342    106,473    1409
57,332    106,560    1408
57,322    106,454    1409
57,312    106,293    1411
57,302    106,528    1408
57,292    106,496    1409
57,282    106,583    1407
57,272    106,579    1407
57,262    106,353    1410
57,252    106,348    1410
57,242    106,648    1406
57,232    106,671    1406
57,222    106,968    1402
57,212    106,551    1408
57,202    106,560    1408
57,192    106,908    1403
57,182    106,968    1402
57,172    106,588    1407
57,162    106,787    1405
57,152    106,838    1404
57,142    107,253    1399
57,132    106,987    1402
57,122    106,676    1406
57,112    107,676    1393
57,102    108,221    1386
57,092    107,577    1394
57,082    109,047    1376
57,072    124,543    1204
57,062    148,702    1009
57,052    110,063    1363
