Z-Pos[um]|R[MOhm]|I[pA]
61,037    106,119    1414
61,027    106,908    1403
61,017    106,316    1411
61,007    106,367    1410
60,997    106,385    1410
60,987    106,064    1414
60,977    106,298    1411
60,967    106,491    1409
60,957    106,468    1409
60,947    106,325    1411
60,937    106,256    1412
60,927    106,233    1412
60,917    106,565    1408
60,907    106,362    1410
60,897    106,500    1408
60,887    106,146    1413
60,877    106,307    1411
60,867    106,357    1410
60,857    106,206    1412
60,847    106,265    1412
60,837    106,132    1413
60,827    106,233    1412
60,817    106,491    1409
60,807    106,114    1414
60,797    106,436    1409
60,787    106,137    1413
60,777    106,330    1411
60,767    106,796    1405
60,757    106,233    1412
60,747    106,229    1412
60,737    106,500    1408
60,727    106,482    1409
60,717    106,371    1410
60,707    106,380    1410
60,697    106,105    1414
60,687    106,371    1410
60,677    106,482    1409
60,667    106,417    1410
60,657    106,265    1412
60,647    106,141    1413
60,637    106,394    1410
60,627    106,468    1409
60,617    106,339    1411
60,607    106,330    1411
60,597    106,119    1414
60,587    106,298    1411
60,577    106,422    1409
60,567    106,403    1410
60,557    106,316    1411
60,547    106,146    1413
60,537    106,325    1411
60,527    106,408    1410
60,517    106,316    1411
60,507    106,399    1410
60,497    106,206    1412
60,487    106,054    1414
60,477    106,403    1410
60,467    106,201    1412
60,457    106,385    1410
60,447    106,146    1413
60,437    106,206    1412
60,427    106,459    1409
60,417    106,229    1412
60,407    106,302    1411
60,397    106,265    1412
60,387    106,256    1412
60,377    106,486    1409
60,367    106,183    1413
60,357    106,192    1413
60,347    106,256    1412
60,337    106,298    1411
60,327    106,380    1410
60,317    106,275    1411
60,307    106,307    1411
60,297    106,339    1411
60,287    106,160    1413
60,277    106,500    1408
60,267    106,509    1408
60,257    106,045    1414
60,247    106,468    1409
60,237    106,477    1409
60,227    106,482    1409
60,217    106,353    1410
60,207    106,151    1413
60,197    106,477    1409
60,187    106,362    1410
60,177    106,542    1408
60,167    106,344    1411
60,157    106,160    1413
60,147    106,242    1412
60,137    106,463    1409
60,127    106,611    1407
60,117    106,662    1406
60,107    106,917    1403
60,097    106,486    1409
60,087    106,334    1411
60,077    106,357    1410
60,067    106,174    1413
60,057    106,311    1411
60,047    106,371    1410
60,037    106,288    1411
60,027    106,611    1407
60,017    106,838    1404
60,007    106,931    1403
59,997    106,778    1405
59,987    106,667    1406
59,977    106,838    1404
59,967    106,514    1408
59,957    106,242    1412
59,947    106,394    1410
59,937    106,073    1414
59,927    106,380    1410
59,917    106,473    1409
59,907    106,321    1411
59,897    106,105    1414
59,887    106,824    1404
59,877    106,699    1406
59,867    106,848    1404
59,857    106,778    1405
59,847    106,334    1411
59,837    106,440    1409
59,827    106,403    1410
59,817    106,050    1414
59,807    106,210    1412
59,797    106,436    1409
59,787    106,334    1411
59,777    106,514    1408
59,767    106,413    1410
59,757    106,348    1410
59,747    106,265    1412
59,737    106,367    1410
59,727    106,229    1412
59,717    106,178    1413
59,707    106,160    1413
59,697    106,367    1410
59,687    106,275    1411
59,677    106,426    1409
59,667    106,206    1412
59,657    106,279    1411
59,647    106,362    1410
59,637    106,261    1412
59,627    106,380    1410
59,617    106,390    1410
59,607    106,311    1411
59,597    106,482    1409
59,587    106,307    1411
59,577    106,201    1412
59,567    106,390    1410
59,557    106,197    1412
59,547    106,486    1409
59,537    106,390    1410
59,527    106,242    1412
59,517    106,252    1412
59,507    106,261    1412
59,497    106,284    1411
59,487    106,523    1408
59,477    106,123    1413
59,467    106,206    1412
59,457    106,436    1409
59,447    106,201    1412
59,437    106,330    1411
59,427    106,141    1413
59,417    106,270    1411
59,407    106,422    1409
59,397    106,132    1413
59,387    106,284    1411
59,377    106,114    1414
59,367    106,183    1413
59,357    106,537    1408
59,347    106,284    1411
59,337    106,302    1411
59,327    106,334    1411
59,317    106,238    1412
59,307    106,625    1407
59,297    106,801    1404
59,287    106,496    1409
59,277    106,931    1403
59,267    107,015    1402
59,257    106,834    1404
59,247    106,357    1410
59,237    106,408    1410
59,227    106,141    1413
59,217    106,482    1409
59,207    106,367    1410
59,197    106,242    1412
59,187    106,215    1412
59,177    106,394    1410
59,167    106,413    1410
59,157    106,339    1411
59,147    106,178    1413
59,137    106,233    1412
59,127    106,509    1408
59,117    106,261    1412
59,107    106,371    1410
59,097    106,109    1414
59,087    106,380    1410
59,077    106,773    1405
59,067    106,463    1409
59,057    106,380    1410
59,047    106,662    1406
59,037    106,509    1408
59,027    106,528    1408
59,017    106,704    1406
59,007    106,298    1411
58,997    106,413    1410
58,987    106,755    1405
58,977    106,509    1408
58,967    106,436    1409
58,957    106,611    1407
58,947    106,357    1410
58,937    106,362    1410
58,927    106,357    1410
58,917    106,128    1413
58,907    106,500    1408
58,897    106,454    1409
58,887    106,242    1412
58,877    106,252    1412
58,867    106,041    1415
58,857    106,077    1414
58,847    106,542    1408
58,837    106,123    1413
58,827    106,270    1411
58,817    106,219    1412
58,807    106,593    1407
58,797    106,634    1407
58,787    106,519    1408
58,777    106,330    1411
58,767    106,570    1408
58,757    106,741    1405
58,747    106,482    1409
58,737    106,238    1412
58,727    106,307    1411
58,717    106,238    1412
58,707    106,491    1409
58,697    106,270    1411
58,687    106,533    1408
58,677    106,187    1413
58,667    106,229    1412
58,657    106,620    1407
58,647    106,514    1408
58,637    106,426    1409
58,627    106,570    1408
58,617    106,330    1411
58,607    106,459    1409
58,597    106,463    1409
58,587    106,219    1412
58,577    106,367    1410
58,567    106,270    1411
58,557    106,463    1409
58,547    106,385    1410
58,537    106,146    1413
58,527    106,736    1405
58,517    106,376    1410
58,507    106,431    1409
58,497    106,732    1405
58,487    106,353    1410
58,477    106,413    1410
58,467    106,704    1406
58,457    106,482    1409
58,447    106,570    1408
58,437    106,486    1409
58,427    106,247    1412
58,417    106,247    1412
58,407    106,265    1412
58,397    106,151    1413
58,387    106,533    1408
58,377    106,279    1411
58,367    106,362    1410
58,357    106,288    1411
58,347    106,146    1413
58,337    106,417    1410
58,327    106,431    1409
58,317    106,302    1411
58,307    106,496    1409
58,297    106,192    1413
58,287    106,311    1411
58,277    106,509    1408
58,267    106,367    1410
58,257    106,256    1412
58,247    106,105    1414
58,237    106,174    1413
58,227    106,468    1409
58,217    106,270    1411
58,207    106,334    1411
58,197    106,229    1412
58,187    106,004    1415
58,177    106,477    1409
58,167    106,275    1411
58,157    106,339    1411
58,147    106,210    1412
58,137    106,279    1411
58,127    106,399    1410
58,117    106,311    1411
58,107    106,288    1411
58,097    106,417    1410
58,087    106,242    1412
58,077    106,450    1409
58,067    106,339    1411
58,057    106,224    1412
58,047    106,330    1411
58,037    106,339    1411
58,027    106,560    1408
58,017    106,644    1407
58,007    106,229    1412
57,997    106,242    1412
57,987    106,325    1411
57,977    106,468    1409
57,967    106,607    1407
57,957    106,187    1413
57,947    106,339    1411
57,937    106,380    1410
57,927    106,288    1411
57,917    106,482    1409
57,907    106,082    1414
57,897    106,357    1410
57,887    106,413    1410
57,877    106,261    1412
57,867    106,523    1408
57,857    106,164    1413
57,847    106,344    1411
57,837    106,431    1409
57,827    106,293    1411
57,817    106,597    1407
57,807    106,450    1409
57,797    106,570    1408
57,787    106,551    1408
57,777    106,242    1412
57,767    106,233    1412
57,757    106,611    1407
57,747    106,556    1408
57,737    106,473    1409
57,727    106,468    1409
57,717    106,316    1411
57,707    106,265    1412
57,697    106,546    1408
57,687    106,307    1411
57,677    106,215    1412
57,667    106,394    1410
57,657    106,238    1412
57,647    106,741    1405
57,637    106,417    1410
57,627    106,261    1412
57,617    106,509    1408
57,607    106,219    1412
57,597    106,496    1409
57,587    106,542    1408
57,577    106,123    1413
57,567    106,500    1408
57,557    106,344    1411
57,547    106,445    1409
57,537    106,440    1409
57,527    106,917    1403
57,517    106,459    1409
57,507    106,491    1409
57,497    106,477    1409
57,487    106,275    1411
57,477    106,265    1412
57,467    106,634    1407
57,457    106,311    1411
57,447    106,316    1411
57,437    106,169    1413
57,427    106,321    1411
57,417    106,533    1408
57,407    106,298    1411
57,397    106,413    1410
57,387    106,334    1411
57,377    106,298    1411
57,367    106,644    1407
57,357    106,242    1412
57,347    106,302    1411
57,337    106,367    1410
57,327    106,371    1410
57,317    106,667    1406
57,307    106,450    1409
57,297    106,611    1407
57,287    106,468    1409
57,277    106,321    1411
57,267    106,634    1407
57,257    106,500    1408
57,247    106,219    1412
57,237    107,436    1396
57,227    106,741    1405
57,217    106,694    1406
57,207    106,630    1407
57,197    106,514    1408
57,187    106,704    1406
57,177    106,783    1405
57,167    106,644    1407
57,157    107,249    1399
57,147    106,769    1405
57,137    106,408    1410
57,127    107,328    1398
57,117    108,475    1383
57,107    106,745    1405
57,097    107,010    1402
57,087    108,599    1381
57,077    107,319    1398
57,067    108,022    1389
57,057    114,691    1308
57,047    108,743    1379
57,037    166,877    899
57,027    107,927    1390
57,017    855,412    175
57,007    123,690    1213
