Z-Pos[um]|R[MOhm]|I[pA]
59,038    106,394    1410
59,028    107,020    1402
59,018    106,413    1410
59,008    106,477    1409
58,998    106,519    1408
58,988    106,091    1414
58,978    106,426    1409
58,968    106,588    1407
58,958    106,699    1406
58,948    106,242    1412
58,938    106,611    1407
58,928    106,413    1410
58,918    106,454    1409
58,908    106,468    1409
58,898    106,141    1413
58,888    106,436    1409
58,878    106,505    1408
58,868    106,607    1407
58,858    106,565    1408
58,848    106,528    1408
58,838    106,570    1408
58,828    106,899    1403
58,818    106,284    1411
58,808    106,459    1409
58,798    106,183    1413
58,788    106,399    1410
58,778    106,787    1405
58,768    106,206    1412
58,758    106,206    1412
58,748    106,486    1409
58,738    106,270    1411
58,728    106,565    1408
58,718    106,316    1411
58,708    106,192    1413
58,698    106,496    1409
58,688    106,265    1412
58,678    106,537    1408
58,668    106,399    1410
58,658    106,132    1413
58,648    106,509    1408
58,638    106,233    1412
58,628    106,394    1410
58,618    106,348    1410
58,608    106,183    1413
58,598    106,417    1410
58,588    106,339    1411
58,578    106,450    1409
58,568    106,413    1410
58,558    106,197    1412
58,548    106,634    1407
58,538    107,080    1401
58,528    106,764    1405
58,518    106,362    1410
58,508    106,537    1408
58,498    106,201    1412
58,488    106,344    1411
58,478    106,408    1410
58,468    106,087    1414
58,458    106,565    1408
58,448    106,197    1412
58,438    106,376    1410
58,428    106,463    1409
58,418    106,128    1413
58,408    106,463    1409
58,398    106,376    1410
58,388    106,431    1409
58,378    106,385    1410
58,368    106,178    1413
58,358    106,459    1409
58,348    106,602    1407
58,338    106,321    1411
58,328    106,192    1413
58,318    106,261    1412
58,308    106,344    1411
58,298    106,491    1409
58,288    106,293    1411
58,278    106,413    1410
58,268    106,229    1412
58,258    106,288    1411
58,248    106,348    1410
58,238    106,367    1410
58,228    106,275    1411
58,218    106,417    1410
58,208    106,634    1407
58,198    106,408    1410
58,188    106,242    1412
58,178    106,298    1411
58,168    106,357    1410
58,158    106,542    1408
58,148    106,334    1411
58,138    106,233    1412
58,128    106,454    1409
58,118    106,321    1411
58,108    106,583    1407
58,098    106,639    1407
58,088    106,339    1411
58,078    106,463    1409
58,068    106,500    1408
58,058    106,252    1412
58,048    106,261    1412
58,038    106,431    1409
58,028    106,265    1412
58,018    106,620    1407
58,008    106,242    1412
57,998    106,307    1411
57,988    106,238    1412
57,978    106,344    1411
57,968    106,662    1406
57,958    107,034    1401
57,948    106,105    1414
57,938    106,533    1408
57,928    106,344    1411
57,918    106,353    1410
57,908    106,298    1411
57,898    106,119    1414
57,888    106,316    1411
57,878    106,385    1410
57,868    106,242    1412
57,858    106,477    1409
57,848    106,270    1411
57,838    106,380    1410
57,828    106,630    1407
57,818    106,445    1409
57,808    106,477    1409
57,798    106,183    1413
57,788    106,302    1411
57,778    106,482    1409
57,768    106,321    1411
57,758    106,344    1411
57,748    106,238    1412
57,738    106,265    1412
57,728    106,477    1409
57,718    106,256    1412
57,708    106,394    1410
57,698    106,403    1410
57,688    106,261    1412
57,678    106,570    1408
57,668    106,367    1410
57,658    106,399    1410
57,648    106,215    1412
57,638    106,275    1411
57,628    106,630    1407
57,618    106,334    1411
57,608    106,348    1410
57,598    106,496    1409
57,588    106,229    1412
57,578    106,463    1409
57,568    106,556    1408
57,558    106,197    1412
57,548    106,611    1407
57,538    106,357    1410
57,528    106,496    1409
57,518    106,440    1409
57,508    106,187    1413
57,498    106,426    1409
57,488    106,556    1408
57,478    106,385    1410
57,468    106,477    1409
57,458    106,399    1410
57,448    106,206    1412
57,438    106,570    1408
57,428    106,403    1410
57,418    106,316    1411
57,408    106,422    1409
57,398    106,238    1412
57,388    106,611    1407
57,378    106,676    1406
57,368    106,155    1413
57,358    106,583    1407
57,348    106,353    1410
57,338    106,620    1407
57,328    106,565    1408
57,318    106,385    1410
57,308    106,653    1406
57,298    106,348    1410
57,288    106,505    1408
57,278    106,648    1406
57,268    106,298    1411
57,258    106,482    1409
57,248    106,597    1407
57,238    106,533    1408
57,228    106,759    1405
57,218    106,408    1410
57,208    106,662    1406
57,198    106,866    1404
57,188    106,671    1406
57,178    106,574    1407
57,168    106,468    1409
57,158    106,704    1406
57,148    107,417    1396
57,138    106,653    1406
57,128    106,992    1402
57,118    107,141    1400
57,108    106,950    1403
57,098    108,546    1382
57,088    108,074    1388
57,078    107,903    1390
57,068    107,681    1393
57,058    109,616    1368
