Z-Pos[um]|R[MOhm]|I[pA]
59,060    106,027    1415
59,050    106,755    1405
59,040    106,151    1413
59,030    106,270    1411
59,020    106,284    1411
59,010    105,981    1415
59,000    106,399    1410
58,990    106,422    1409
58,980    106,399    1410
58,970    106,247    1412
58,960    106,913    1403
58,950    106,773    1405
58,940    106,077    1414
58,930    106,233    1412
58,920    106,141    1413
58,910    106,164    1413
58,900    106,463    1409
58,890    106,174    1413
58,880    106,183    1413
58,870    106,390    1410
58,860    106,256    1412
58,850    106,500    1408
58,840    106,087    1414
58,830    106,119    1414
58,820    106,091    1414
58,810    106,164    1413
58,800    106,528    1408
58,790    106,151    1413
58,780    106,100    1414
58,770    106,302    1411
58,760    106,261    1412
58,750    106,593    1407
58,740    106,298    1411
58,730    106,367    1410
58,720    106,394    1410
58,710    106,164    1413
58,700    106,279    1411
58,690    106,311    1411
58,680    106,178    1413
58,670    106,339    1411
58,660    106,219    1412
58,650    106,183    1413
58,640    106,353    1410
58,630    106,105    1414
58,620    106,500    1408
58,610    106,160    1413
58,600    106,459    1409
58,590    106,741    1405
58,580    106,681    1406
58,570    106,556    1408
58,560    106,556    1408
58,550    106,546    1408
58,540    106,667    1406
58,530    106,073    1414
58,520    106,542    1408
58,510    106,091    1414
58,500    106,128    1413
58,490    106,376    1410
58,480    106,275    1411
58,470    106,293    1411
58,460    106,206    1412
58,450    106,293    1411
58,440    106,371    1410
58,430    106,279    1411
58,420    106,302    1411
58,410    106,275    1411
58,400    106,022    1415
58,390    106,367    1410
58,380    106,852    1404
58,370    106,792    1405
58,360    106,482    1409
58,350    106,708    1406
58,340    106,848    1404
58,330    106,533    1408
58,320    106,741    1405
58,310    106,824    1404
58,300    107,010    1402
58,290    106,829    1404
58,280    106,588    1407
58,270    106,611    1407
58,260    106,959    1402
58,250    106,773    1405
58,240    106,602    1407
58,230    106,519    1408
58,220    107,015    1402
58,210    106,745    1405
58,200    106,316    1411
58,190    106,468    1409
58,180    106,279    1411
58,170    106,219    1412
58,160    106,242    1412
58,150    106,091    1414
58,140    106,302    1411
58,130    106,560    1408
58,120    106,783    1405
58,110    106,815    1404
58,100    106,270    1411
58,090    106,238    1412
58,080    106,321    1411
58,070    106,009    1415
58,060    106,436    1409
58,050    106,362    1410
58,040    106,219    1412
58,030    106,537    1408
58,020    105,977    1415
58,010    106,371    1410
58,000    106,178    1413
57,990    106,454    1409
57,980    106,422    1409
57,970    106,073    1414
57,960    106,334    1411
57,950    106,339    1411
57,940    106,206    1412
57,930    106,417    1410
57,920    106,192    1413
57,910    106,302    1411
57,900    106,834    1404
57,890    106,954    1402
57,880    106,408    1410
57,870    106,445    1409
57,860    107,066    1401
57,850    106,399    1410
57,840    106,174    1413
57,830    106,155    1413
57,820    106,330    1411
57,810    106,238    1412
57,800    106,413    1410
57,790    106,233    1412
57,780    106,091    1414
57,770    106,542    1408
57,760    106,174    1413
57,750    106,371    1410
57,740    106,284    1411
57,730    106,256    1412
57,720    106,468    1409
57,710    106,123    1413
57,700    106,394    1410
57,690    106,284    1411
57,680    106,302    1411
57,670    106,413    1410
57,660    106,454    1409
57,650    106,247    1412
57,640    106,685    1406
57,630    106,298    1411
57,620    106,436    1409
57,610    106,256    1412
57,600    106,238    1412
57,590    106,408    1410
57,580    106,551    1408
57,570    106,357    1410
57,560    106,302    1411
57,550    106,064    1414
57,540    106,275    1411
57,530    106,473    1409
57,520    106,362    1410
57,510    106,348    1410
57,500    106,096    1414
57,490    106,334    1411
57,480    106,657    1406
57,470    106,491    1409
57,460    106,270    1411
57,450    106,311    1411
57,440    106,183    1413
57,430    106,542    1408
57,420    106,265    1412
57,410    106,252    1412
57,400    106,197    1412
57,390    106,376    1410
57,380    106,542    1408
57,370    106,399    1410
57,360    106,362    1410
57,350    106,229    1412
57,340    106,376    1410
57,330    106,542    1408
57,320    106,376    1410
57,310    106,334    1411
57,300    106,339    1411
57,290    106,436    1409
57,280    106,593    1407
57,270    106,431    1409
57,260    106,353    1410
57,250    106,514    1408
57,240    106,325    1411
57,230    106,787    1405
57,220    106,602    1407
57,210    106,399    1410
57,200    106,750    1405
57,190    106,473    1409
57,180    106,473    1409
57,170    106,968    1402
57,160    106,653    1406
57,150    106,745    1405
57,140    106,727    1405
57,130    108,662    1380
57,120    107,780    1392
57,110    106,431    1409
57,100    107,169    1400
57,090    111,461    1346
57,080    107,338    1397
57,070    107,183    1399
57,060    331,705    452
57,050    115,489    1299
