Z-Pos[um]|R[MOhm]|I[pA]
59,005    106,583    1407
58,995    106,927    1403
58,985    106,403    1410
58,975    106,330    1411
58,965    106,174    1413
58,955    106,344    1411
58,945    106,523    1408
58,935    106,353    1410
58,925    106,311    1411
58,915    106,160    1413
58,905    106,197    1412
58,895    106,671    1406
58,885    106,810    1404
58,875    106,570    1408
58,865    107,043    1401
58,855    106,496    1409
58,845    106,242    1412
58,835    106,431    1409
58,825    106,155    1413
58,815    106,247    1412
58,805    106,644    1407
58,795    106,265    1412
58,785    106,357    1410
58,775    106,151    1413
58,765    106,275    1411
58,755    106,546    1408
58,745    106,288    1411
58,735    106,261    1412
58,725    106,284    1411
58,715    106,293    1411
58,705    106,871    1404
58,695    106,764    1405
58,685    106,477    1409
58,675    106,473    1409
58,665    106,376    1410
58,655    106,261    1412
58,645    106,394    1410
58,635    106,482    1409
58,625    106,197    1412
58,615    106,482    1409
58,605    106,390    1410
58,595    106,275    1411
58,585    106,160    1413
58,575    106,261    1412
58,565    106,440    1409
58,555    106,270    1411
58,545    106,068    1414
58,535    106,224    1412
58,525    106,380    1410
58,515    106,413    1410
58,505    106,353    1410
58,495    106,091    1414
58,485    106,380    1410
58,475    106,417    1410
58,465    106,491    1409
58,455    106,302    1411
58,445    106,105    1414
58,435    106,385    1410
58,425    106,399    1410
58,415    106,376    1410
58,405    106,857    1404
58,395    106,704    1406
58,385    106,718    1406
58,375    106,927    1403
58,365    106,727    1405
58,355    106,496    1409
58,345    106,505    1408
58,335    106,597    1407
58,325    106,219    1412
58,315    106,413    1410
58,305    106,169    1413
58,295    106,279    1411
58,285    106,477    1409
58,275    106,265    1412
58,265    106,270    1411
58,255    106,403    1410
58,245    106,128    1413
58,235    106,769    1405
58,225    106,413    1410
58,215    106,293    1411
58,205    106,348    1410
58,195    106,367    1410
58,185    106,380    1410
58,175    106,500    1408
58,165    106,132    1413
58,155    106,160    1413
58,145    106,463    1409
58,135    106,119    1414
58,125    106,339    1411
58,115    106,339    1411
58,105    106,570    1408
58,095    106,357    1410
58,085    106,316    1411
58,075    106,256    1412
58,065    106,298    1411
58,055    106,491    1409
58,045    106,334    1411
58,035    106,311    1411
58,025    106,229    1412
58,015    106,380    1410
58,005    106,311    1411
57,995    106,321    1411
57,985    106,146    1413
57,975    106,298    1411
57,965    106,450    1409
57,955    106,265    1412
57,945    106,357    1410
57,935    106,183    1413
57,925    106,201    1412
57,915    106,417    1410
57,905    106,311    1411
57,895    106,486    1409
57,885    106,146    1413
57,875    106,169    1413
57,865    106,486    1409
57,855    106,224    1412
57,845    106,376    1410
57,835    106,357    1410
57,825    106,454    1409
57,815    106,551    1408
57,805    106,275    1411
57,795    106,261    1412
57,785    106,676    1406
57,775    106,908    1403
57,765    106,987    1402
57,755    106,676    1406
57,745    106,681    1406
57,735    107,174    1400
57,725    106,950    1403
57,715    106,773    1405
57,705    106,634    1407
57,695    106,732    1405
57,685    106,588    1407
57,675    106,454    1409
57,665    106,519    1408
57,655    106,894    1403
57,645    106,454    1409
57,635    106,644    1407
57,625    106,413    1410
57,615    106,653    1406
57,605    106,542    1408
57,595    106,399    1410
57,585    106,114    1414
57,575    106,459    1409
57,565    106,367    1410
57,555    106,436    1409
57,545    106,390    1410
57,535    106,128    1413
57,525    106,505    1408
57,515    106,468    1409
57,505    106,270    1411
57,495    106,468    1409
57,485    106,242    1412
57,475    106,302    1411
57,465    106,496    1409
57,455    106,376    1410
57,445    106,528    1408
57,435    106,284    1411
57,425    106,344    1411
57,415    106,583    1407
57,405    106,288    1411
57,395    106,445    1409
57,385    106,367    1410
57,375    106,523    1408
57,365    106,542    1408
57,355    106,321    1411
57,345    106,357    1410
57,335    106,385    1410
57,325    106,307    1411
57,315    106,634    1407
57,305    106,426    1409
57,295    106,321    1411
57,285    106,463    1409
57,275    106,403    1410
57,265    106,570    1408
57,255    106,681    1406
57,245    106,399    1410
57,235    106,713    1406
57,225    106,491    1409
57,215    106,685    1406
57,205    106,834    1404
57,195    106,597    1407
57,185    106,676    1406
57,175    107,001    1402
57,165    107,104    1401
57,155    107,239    1399
57,145    106,676    1406
57,135    106,657    1406
57,125    107,164    1400
57,115    107,178    1400
57,105    106,653    1406
57,095    107,305    1398
57,085    108,455    1383
57,075    107,780    1392
57,065    108,269    1385
57,055    107,295    1398
57,045    461,261    325
57,035    112,296    1336
