Z-Pos[um]|R[MOhm]|I[pA]
59,058    106,275    1411
59,048    106,936    1403
59,038    106,463    1409
59,028    106,394    1410
59,018    106,151    1413
59,008    106,450    1409
58,998    106,380    1410
58,988    106,413    1410
58,978    106,371    1410
58,968    106,178    1413
58,958    106,482    1409
58,948    106,450    1409
58,938    106,667    1406
58,928    106,496    1409
58,918    106,247    1412
58,908    106,390    1410
58,898    106,394    1410
58,888    106,197    1412
58,878    106,403    1410
58,868    106,164    1413
58,858    106,321    1411
58,848    106,385    1410
58,838    106,187    1413
58,828    106,362    1410
58,818    106,192    1413
58,808    106,238    1412
58,798    106,574    1407
58,788    106,229    1412
58,778    106,302    1411
58,768    106,339    1411
58,758    106,293    1411
58,748    106,542    1408
58,738    106,219    1412
58,728    106,242    1412
58,718    106,247    1412
58,708    106,256    1412
58,698    106,422    1409
58,688    106,491    1409
58,678    106,206    1412
58,668    106,371    1410
58,658    106,330    1411
58,648    106,537    1408
58,638    106,602    1407
58,628    106,164    1413
58,618    106,357    1410
58,608    106,325    1411
58,598    106,514    1408
58,588    106,380    1410
58,578    106,032    1415
58,568    106,459    1409
58,558    106,238    1412
58,548    106,445    1409
58,538    106,450    1409
58,528    106,128    1413
58,518    106,380    1410
58,508    106,408    1410
58,498    106,344    1411
58,488    106,496    1409
58,478    106,183    1413
58,468    106,362    1410
58,458    106,426    1409
58,448    106,473    1409
58,438    106,583    1407
58,428    106,394    1410
58,418    106,357    1410
58,408    106,325    1411
58,398    106,109    1414
58,388    106,155    1413
58,378    106,408    1410
58,368    106,293    1411
58,358    106,353    1410
58,348    106,155    1413
58,338    106,252    1412
58,328    106,533    1408
58,318    106,206    1412
58,308    106,302    1411
58,298    106,321    1411
58,288    106,321    1411
58,278    106,477    1409
58,268    106,141    1413
58,258    106,353    1410
58,248    106,265    1412
58,238    106,224    1412
58,228    106,685    1406
58,218    106,265    1412
58,208    106,261    1412
58,198    106,625    1407
58,188    106,174    1413
58,178    106,662    1406
58,168    106,450    1409
58,158    106,247    1412
58,148    106,311    1411
58,138    107,048    1401
58,128    106,357    1410
58,118    106,137    1413
58,108    106,722    1406
58,098    106,982    1402
58,088    106,662    1406
58,078    106,644    1407
58,068    106,834    1404
58,058    106,801    1404
58,048    106,579    1407
58,038    106,367    1410
58,028    106,219    1412
58,018    106,362    1410
58,008    106,496    1409
57,998    106,279    1411
57,988    106,307    1411
57,978    106,371    1410
57,968    106,473    1409
57,958    106,473    1409
57,948    106,316    1411
57,938    106,242    1412
57,928    106,353    1410
57,918    106,408    1410
57,908    106,450    1409
57,898    106,371    1410
57,888    106,123    1413
57,878    106,417    1410
57,868    106,265    1412
57,858    106,413    1410
57,848    106,514    1408
57,838    106,041    1415
57,828    106,367    1410
57,818    106,169    1413
57,808    106,533    1408
57,798    106,593    1407
57,788    106,100    1414
57,778    106,353    1410
57,768    106,339    1411
57,758    106,431    1409
57,748    106,593    1407
57,738    106,252    1412
57,728    106,330    1411
57,718    106,496    1409
57,708    106,307    1411
57,698    106,192    1413
57,688    106,141    1413
57,678    106,542    1408
57,668    106,270    1411
57,658    106,045    1414
57,648    106,417    1410
57,638    106,616    1407
57,628    106,871    1404
57,618    106,913    1403
57,608    106,699    1406
57,598    106,380    1410
57,588    106,565    1408
57,578    106,334    1411
57,568    106,371    1410
57,558    106,385    1410
57,548    106,270    1411
57,538    106,514    1408
57,528    106,362    1410
57,518    106,242    1412
57,508    106,279    1411
57,498    106,344    1411
57,488    106,537    1408
57,478    106,408    1410
57,468    106,114    1414
57,458    106,523    1408
57,448    106,560    1408
57,438    106,528    1408
57,428    106,403    1410
57,418    106,265    1412
57,408    106,486    1409
57,398    106,450    1409
57,388    106,593    1407
57,378    106,330    1411
57,368    106,233    1412
57,358    106,482    1409
57,348    106,417    1410
57,338    106,431    1409
57,328    106,486    1409
57,318    106,403    1410
57,308    106,367    1410
57,298    106,671    1406
57,288    106,542    1408
57,278    106,505    1408
57,268    106,339    1411
57,258    106,931    1403
57,248    106,718    1406
57,238    106,486    1409
57,228    106,519    1408
57,218    106,537    1408
57,208    106,463    1409
57,198    106,810    1404
57,188    106,759    1405
57,178    106,889    1403
57,168    106,708    1406
57,158    106,450    1409
57,148    107,160    1400
57,138    107,300    1398
57,128    106,477    1409
57,118    106,978    1402
57,108    107,408    1397
57,098    107,686    1393
57,088    107,445    1396
57,078    107,974    1389
57,068    108,131    1387
57,058    107,889    1390
57,048    149,226    1005
57,038    123,572    1214
