Z-Pos[um]|R[MOhm]|I[pA]
59,050    106,450    1409
59,040    106,533    1408
59,030    106,275    1411
59,020    106,325    1411
59,010    106,041    1415
59,000    106,408    1410
58,990    106,178    1413
58,980    106,293    1411
58,970    106,233    1412
58,960    105,995    1415
58,950    106,454    1409
58,940    106,265    1412
58,930    106,302    1411
58,920    106,445    1409
58,910    106,178    1413
58,900    106,284    1411
58,890    106,141    1413
58,880    106,160    1413
58,870    106,445    1409
58,860    106,187    1413
58,850    106,137    1413
58,840    106,307    1411
58,830    106,050    1414
58,820    106,307    1411
58,810    106,174    1413
58,800    106,252    1412
58,790    106,293    1411
58,780    106,344    1411
58,770    106,123    1413
58,760    106,321    1411
58,750    106,192    1413
58,740    106,445    1409
58,730    106,330    1411
58,720    106,096    1414
58,710    106,371    1410
58,700    106,238    1412
58,690    106,247    1412
58,680    106,408    1410
58,670    106,321    1411
58,660    106,132    1413
58,650    106,667    1406
58,640    106,639    1407
58,630    106,783    1405
58,620    106,917    1403
58,610    106,224    1412
58,600    106,247    1412
58,590    106,463    1409
58,580    106,252    1412
58,570    106,105    1414
58,560    106,201    1412
58,550    106,307    1411
58,540    106,325    1411
58,530    106,275    1411
58,520    106,206    1412
58,510    106,413    1410
58,500    106,284    1411
58,490    106,316    1411
58,480    106,311    1411
58,470    106,146    1413
58,460    106,367    1410
58,450    106,233    1412
58,440    106,311    1411
58,430    106,316    1411
58,420    106,009    1415
58,410    106,284    1411
58,400    106,114    1414
58,390    106,252    1412
58,380    106,210    1412
58,370    106,123    1413
58,360    106,293    1411
58,350    106,321    1411
58,340    106,311    1411
58,330    106,164    1413
58,320    106,380    1410
58,310    106,298    1411
58,300    106,275    1411
58,290    106,334    1411
58,280    106,137    1413
58,270    106,422    1409
58,260    106,376    1410
58,250    106,123    1413
58,240    106,270    1411
58,230    106,073    1414
58,220    106,215    1412
58,210    106,399    1410
58,200    106,215    1412
58,190    106,408    1410
58,180    106,215    1412
58,170    106,183    1413
58,160    106,298    1411
58,150    106,169    1413
58,140    106,238    1412
58,130    106,371    1410
58,120    106,256    1412
58,110    106,316    1411
58,100    106,801    1404
58,090    106,445    1409
58,080    106,708    1406
58,070    106,885    1403
58,060    106,843    1404
58,050    106,473    1409
58,040    106,704    1406
58,030    106,931    1403
58,020    106,657    1406
58,010    106,385    1410
58,000    106,778    1405
57,990    106,861    1404
57,980    106,704    1406
57,970    106,219    1412
57,960    106,431    1409
57,950    106,394    1410
57,940    106,431    1409
57,930    106,436    1409
57,920    106,229    1412
57,910    106,146    1413
57,900    106,556    1408
57,890    106,252    1412
57,880    106,114    1414
57,870    106,597    1407
57,860    106,588    1407
57,850    106,491    1409
57,840    106,579    1407
57,830    106,367    1410
57,820    106,371    1410
57,810    106,871    1404
57,800    106,325    1411
57,790    106,265    1412
57,780    106,403    1410
57,770    106,164    1413
57,760    106,380    1410
57,750    106,403    1410
57,740    106,105    1414
57,730    106,459    1409
57,720    106,279    1411
57,710    106,311    1411
57,700    106,537    1408
57,690    106,114    1414
57,680    106,546    1408
57,670    106,509    1408
57,660    106,417    1410
57,650    106,307    1411
57,640    106,206    1412
57,630    106,307    1411
57,620    106,302    1411
57,610    106,321    1411
57,600    106,394    1410
57,590    106,032    1415
57,580    106,252    1412
57,570    106,436    1409
57,560    106,293    1411
57,550    106,325    1411
57,540    106,155    1413
57,530    106,164    1413
57,520    106,468    1409
57,510    106,151    1413
57,500    106,330    1411
57,490    106,160    1413
57,480    106,091    1414
57,470    106,551    1408
57,460    106,206    1412
57,450    106,445    1409
57,440    106,210    1412
57,430    106,376    1410
57,420    106,417    1410
57,410    106,256    1412
57,400    106,321    1411
57,390    106,265    1412
57,380    106,219    1412
57,370    106,616    1407
57,360    106,357    1410
57,350    106,178    1413
57,340    106,408    1410
57,330    106,330    1411
57,320    106,579    1407
57,310    106,357    1410
57,300    106,307    1411
57,290    106,551    1408
57,280    106,380    1410
57,270    106,657    1406
57,260    106,648    1406
57,250    106,380    1410
57,240    106,750    1405
57,230    106,477    1409
57,220    106,523    1408
57,210    106,857    1404
57,200    107,043    1401
57,190    106,852    1404
57,180    106,620    1407
57,170    106,551    1408
57,160    106,653    1406
57,150    106,662    1406
57,140    106,657    1406
57,130    107,020    1402
57,120    106,376    1410
57,110    106,810    1404
57,100    112,631    1332
57,090    106,602    1407
57,080    110,658    1356
57,070    107,211    1399
57,060    128,368    1169
57,050    108,369    1384
57,040    230,285    651
