Z-Pos[um]|R[MOhm]|I[pA]
59,024    106,431    1409
59,014    106,755    1405
59,004    106,344    1411
58,994    106,463    1409
58,984    106,321    1411
58,974    106,556    1408
58,964    106,436    1409
58,954    106,174    1413
58,944    106,408    1410
58,934    106,339    1411
58,924    106,394    1410
58,914    106,491    1409
58,904    106,192    1413
58,894    106,371    1410
58,884    106,293    1411
58,874    106,556    1408
58,864    106,459    1409
58,854    106,151    1413
58,844    106,348    1410
58,834    106,344    1411
58,824    106,357    1410
58,814    106,380    1410
58,804    106,279    1411
58,794    106,399    1410
58,784    106,533    1408
58,774    106,380    1410
58,764    106,316    1411
58,754    106,141    1413
58,744    106,178    1413
58,734    106,436    1409
58,724    106,583    1407
58,714    106,574    1407
58,704    106,796    1405
58,694    106,894    1403
58,684    106,736    1405
58,674    106,445    1409
58,664    106,676    1406
58,654    106,233    1412
58,644    106,426    1409
58,634    106,399    1410
58,624    106,137    1413
58,614    106,514    1408
58,604    106,426    1409
58,594    106,357    1410
58,584    106,348    1410
58,574    106,132    1413
58,564    106,537    1408
58,554    106,353    1410
58,544    106,316    1411
58,534    106,533    1408
58,524    106,054    1414
58,514    106,450    1409
58,504    106,362    1410
58,494    106,242    1412
58,484    106,422    1409
58,474    106,288    1411
58,464    106,334    1411
58,454    106,542    1408
58,444    106,256    1412
58,434    106,394    1410
58,424    106,252    1412
58,414    106,284    1411
58,404    106,565    1408
58,394    106,403    1410
58,384    106,440    1409
58,374    106,270    1411
58,364    106,261    1412
58,354    106,588    1407
58,344    106,238    1412
58,334    106,256    1412
58,324    106,394    1410
58,314    106,233    1412
58,304    106,500    1408
58,294    106,413    1410
58,284    106,321    1411
58,274    106,353    1410
58,264    106,206    1412
58,254    106,371    1410
58,244    106,727    1405
58,234    106,238    1412
58,224    106,454    1409
58,214    106,288    1411
58,204    106,482    1409
58,194    106,551    1408
58,184    106,146    1413
58,174    106,463    1409
58,164    106,357    1410
58,154    106,394    1410
58,144    106,477    1409
58,134    106,242    1412
58,124    106,362    1410
58,114    106,394    1410
58,104    106,390    1410
58,094    106,436    1409
58,084    106,270    1411
58,074    106,431    1409
58,064    106,390    1410
58,054    106,367    1410
58,044    106,348    1410
58,034    106,265    1412
58,024    106,279    1411
58,014    106,491    1409
58,004    106,197    1412
57,994    106,284    1411
57,984    106,293    1411
57,974    106,247    1412
57,964    106,741    1405
57,954    106,293    1411
57,944    106,362    1410
57,934    106,247    1412
57,924    106,348    1410
57,914    106,509    1408
57,904    106,187    1413
57,894    106,376    1410
57,884    106,219    1412
57,874    106,270    1411
57,864    106,454    1409
57,854    106,279    1411
57,844    106,325    1411
57,834    106,330    1411
57,824    106,408    1410
57,814    106,519    1408
57,804    106,477    1409
57,794    106,164    1413
57,784    106,473    1409
57,774    106,463    1409
57,764    106,385    1410
57,754    106,473    1409
57,744    106,348    1410
57,734    106,694    1406
57,724    106,745    1405
57,714    106,390    1410
57,704    106,302    1411
57,694    106,265    1412
57,684    106,528    1408
57,674    106,275    1411
57,664    106,357    1410
57,654    106,307    1411
57,644    106,284    1411
57,634    106,413    1410
57,624    106,261    1412
57,614    106,229    1412
57,604    106,390    1410
57,594    106,376    1410
57,584    106,537    1408
57,574    106,325    1411
57,564    106,514    1408
57,554    106,468    1409
57,544    106,431    1409
57,534    106,468    1409
57,524    106,551    1408
57,514    106,279    1411
57,504    106,463    1409
57,494    106,325    1411
57,484    106,546    1408
57,474    106,385    1410
57,464    106,201    1412
57,454    106,288    1411
57,444    106,634    1407
57,434    106,261    1412
57,424    106,450    1409
57,414    106,376    1410
57,404    106,275    1411
57,394    106,616    1407
57,384    106,477    1409
57,374    106,699    1406
57,364    106,704    1406
57,354    106,810    1404
57,344    106,755    1405
57,334    106,941    1403
57,324    106,820    1404
57,314    106,500    1408
57,304    106,491    1409
57,294    106,593    1407
57,284    106,422    1409
57,274    106,491    1409
57,264    106,634    1407
57,254    106,583    1407
57,244    106,445    1409
57,234    106,657    1406
57,224    106,551    1408
57,214    106,727    1405
57,204    106,718    1406
57,194    106,625    1407
57,184    106,787    1405
57,174    106,927    1403
57,164    106,662    1406
57,154    106,546    1408
57,144    106,348    1410
57,134    106,699    1406
57,124    106,894    1403
57,114    106,671    1406
57,104    106,759    1405
57,094    106,634    1407
57,084    107,024    1402
57,074    107,211    1399
57,064    106,764    1405
57,054    107,761    1392
57,044    107,108    1400
57,034    107,006    1402
57,024    109,159    1374
57,014    107,704    1393
57,004    108,715    1380
56,994    112,527    1333
