Z-Pos[um]|R[MOhm]|I[pA]
61,079    106,275    1411
61,069    106,894    1403
61,059    106,302    1411
61,049    106,344    1411
61,039    106,468    1409
61,029    106,486    1409
61,019    106,528    1408
61,009    106,450    1409
60,999    106,151    1413
60,989    106,344    1411
60,979    106,334    1411
60,969    106,146    1413
60,959    106,468    1409
60,949    106,178    1413
60,939    106,426    1409
60,929    106,362    1410
60,919    106,178    1413
60,909    106,247    1412
60,899    106,422    1409
60,889    106,261    1412
60,879    106,390    1410
60,869    106,192    1413
60,859    106,671    1406
60,849    106,815    1404
60,839    107,080    1401
60,829    106,496    1409
60,819    106,722    1406
60,809    107,015    1402
60,799    106,667    1406
60,789    106,321    1411
60,779    106,284    1411
60,769    106,339    1411
60,759    106,265    1412
60,749    106,087    1414
60,739    106,252    1412
60,729    106,380    1410
60,719    106,288    1411
60,709    106,215    1412
60,699    106,164    1413
60,689    106,238    1412
60,679    106,302    1411
60,669    106,169    1413
60,659    106,344    1411
60,649    106,059    1414
60,639    106,192    1413
60,629    106,399    1410
60,619    106,201    1412
60,609    106,348    1410
60,599    106,109    1414
60,589    106,390    1410
60,579    106,463    1409
60,569    106,109    1414
60,559    106,357    1410
60,549    106,242    1412
60,539    106,206    1412
60,529    106,482    1409
60,519    106,344    1411
60,509    106,018    1415
60,499    106,311    1411
60,489    106,321    1411
60,479    106,394    1410
60,469    106,302    1411
60,459    106,132    1413
60,449    106,275    1411
60,439    106,321    1411
60,429    106,252    1412
60,419    106,390    1410
60,409    106,068    1414
60,399    106,201    1412
60,389    106,417    1410
60,379    106,206    1412
60,369    106,311    1411
60,359    106,096    1414
60,349    106,137    1413
60,339    106,413    1410
60,329    106,247    1412
60,319    106,344    1411
60,309    106,137    1413
60,299    106,192    1413
60,289    106,275    1411
60,279    106,151    1413
60,269    106,371    1410
60,259    106,311    1411
60,249    106,178    1413
60,239    106,376    1410
60,229    106,265    1412
60,219    106,160    1413
60,209    106,293    1411
60,199    106,298    1411
60,189    106,399    1410
60,179    106,160    1413
60,169    105,945    1416
60,159    106,242    1412
60,149    106,174    1413
60,139    106,362    1410
60,129    106,436    1409
60,119    106,233    1412
60,109    106,500    1408
60,099    106,316    1411
60,089    106,311    1411
60,079    106,279    1411
60,069    106,119    1414
60,059    106,413    1410
60,049    106,275    1411
60,039    106,394    1410
60,029    106,357    1410
60,019    106,073    1414
60,009    106,311    1411
59,999    106,169    1413
59,989    106,242    1412
59,979    106,339    1411
59,969    106,160    1413
59,959    106,219    1412
59,949    106,284    1411
59,939    106,164    1413
59,929    106,551    1408
59,919    106,114    1414
59,909    106,316    1411
59,899    106,468    1409
59,889    106,160    1413
59,879    106,445    1409
59,869    106,077    1414
59,859    106,325    1411
59,849    106,982    1402
59,839    106,801    1404
59,829    106,197    1412
59,819    106,422    1409
59,809    106,302    1411
59,799    106,357    1410
59,789    106,252    1412
59,779    106,183    1413
59,769    106,174    1413
59,759    106,270    1411
59,749    106,426    1409
59,739    106,339    1411
59,729    106,197    1412
59,719    106,169    1413
59,709    106,371    1410
59,699    106,367    1410
59,689    106,252    1412
59,679    106,394    1410
59,669    106,261    1412
59,659    106,436    1409
59,649    106,242    1412
59,639    106,362    1410
59,629    106,806    1404
59,619    106,801    1404
59,609    106,570    1408
59,599    106,634    1407
59,589    106,736    1405
59,579    106,917    1403
59,569    106,848    1404
59,559    106,769    1405
59,549    106,941    1403
59,539    106,889    1403
59,529    106,810    1404
59,519    106,648    1406
59,509    106,848    1404
59,499    106,922    1403
59,489    106,344    1411
59,479    106,275    1411
59,469    106,690    1406
59,459    106,593    1407
59,449    106,362    1410
59,439    106,500    1408
59,429    106,473    1409
59,419    106,486    1409
59,409    106,523    1408
59,399    106,546    1408
59,389    106,357    1410
59,379    106,357    1410
59,369    106,741    1405
59,359    106,574    1407
59,349    106,169    1413
59,339    106,417    1410
59,329    106,197    1412
59,319    106,514    1408
59,309    106,380    1410
59,299    106,050    1414
59,289    106,325    1411
59,279    106,082    1414
59,269    106,450    1409
59,259    106,316    1411
59,249    105,986    1415
59,239    106,523    1408
59,229    106,644    1407
59,219    106,275    1411
59,209    106,233    1412
59,199    106,128    1413
59,189    106,242    1412
59,179    106,440    1409
59,169    106,307    1411
59,159    106,219    1412
59,149    106,201    1412
59,139    106,183    1413
59,129    106,533    1408
59,119    106,298    1411
59,109    106,219    1412
59,099    106,229    1412
59,089    106,000    1415
59,079    106,408    1410
59,069    106,376    1410
59,059    106,233    1412
59,049    106,261    1412
59,039    106,123    1413
59,029    106,431    1409
59,019    106,334    1411
59,009    106,096    1414
58,999    106,371    1410
58,989    106,279    1411
58,979    106,334    1411
58,969    106,486    1409
58,959    106,114    1414
58,949    106,334    1411
58,939    106,137    1413
58,929    106,348    1410
58,919    106,197    1412
58,909    106,032    1415
58,899    106,321    1411
58,889    106,690    1406
58,879    106,151    1413
58,869    106,380    1410
58,859    106,187    1413
58,849    106,302    1411
58,839    106,353    1410
58,829    106,219    1412
58,819    106,436    1409
58,809    106,169    1413
58,799    106,390    1410
58,789    106,413    1410
58,779    106,316    1411
58,769    106,302    1411
58,759    106,238    1412
58,749    106,151    1413
58,739    106,750    1405
58,729    106,579    1407
58,719    106,390    1410
58,709    106,574    1407
58,699    106,602    1407
58,689    106,413    1410
58,679    106,519    1408
58,669    106,242    1412
58,659    106,233    1412
58,649    106,486    1409
58,639    106,206    1412
58,629    106,367    1410
58,619    106,302    1411
58,609    106,091    1414
58,599    106,602    1407
58,589    106,100    1414
58,579    106,344    1411
58,569    106,889    1403
58,559    106,210    1412
58,549    106,459    1409
58,539    106,408    1410
58,529    106,032    1415
58,519    106,380    1410
58,509    106,371    1410
58,499    106,279    1411
58,489    106,311    1411
58,479    106,036    1415
58,469    106,376    1410
58,459    106,362    1410
58,449    106,685    1406
58,439    106,330    1411
58,429    106,399    1410
58,419    106,468    1409
58,409    106,321    1411
58,399    106,454    1409
58,389    106,132    1413
58,379    106,215    1412
58,369    106,353    1410
58,359    106,201    1412
58,349    106,298    1411
58,339    106,123    1413
58,329    106,087    1414
58,319    106,436    1409
58,309    106,178    1413
58,299    106,403    1410
58,289    106,242    1412
58,279    106,284    1411
58,269    106,454    1409
58,259    106,114    1414
58,249    106,321    1411
58,239    106,242    1412
58,229    106,316    1411
58,219    106,625    1407
58,209    106,704    1406
58,199    106,339    1411
58,189    106,625    1407
58,179    106,169    1413
58,169    106,486    1409
58,159    106,722    1406
58,149    106,463    1409
58,139    106,620    1407
58,129    106,792    1405
58,119    106,385    1410
58,109    106,091    1414
58,099    106,109    1414
58,089    107,216    1399
58,079    106,344    1411
58,069    106,160    1413
58,059    106,500    1408
58,049    106,187    1413
58,039    106,445    1409
58,029    106,593    1407
58,019    106,155    1413
58,009    106,334    1411
57,999    106,288    1411
57,989    106,298    1411
57,979    106,486    1409
57,969    106,132    1413
57,959    106,403    1410
57,949    106,201    1412
57,939    106,252    1412
57,929    106,302    1411
57,919    106,137    1413
57,909    106,403    1410
57,899    106,242    1412
57,889    106,284    1411
57,879    106,436    1409
57,869    106,032    1415
57,859    106,362    1410
57,849    106,408    1410
57,839    106,307    1411
57,829    106,528    1408
57,819    106,233    1412
57,809    106,233    1412
57,799    106,431    1409
57,789    106,362    1410
57,779    106,325    1411
57,769    106,298    1411
57,759    106,311    1411
57,749    106,556    1408
57,739    106,100    1414
57,729    106,380    1410
57,719    106,275    1411
57,709    106,270    1411
57,699    106,579    1407
57,689    106,238    1412
57,679    106,100    1414
57,669    106,215    1412
57,659    106,321    1411
57,649    106,436    1409
57,639    106,482    1409
57,629    106,224    1412
57,619    106,357    1410
57,609    106,219    1412
57,599    106,514    1408
57,589    106,371    1410
57,579    106,219    1412
57,569    106,440    1409
57,559    106,197    1412
57,549    106,399    1410
57,539    106,450    1409
57,529    106,256    1412
57,519    106,732    1405
57,509    106,681    1406
57,499    106,459    1409
57,489    106,718    1406
57,479    106,265    1412
57,469    106,426    1409
57,459    106,570    1408
57,449    106,288    1411
57,439    106,422    1409
57,429    106,238    1412
57,419    106,247    1412
57,409    106,732    1405
57,399    106,440    1409
57,389    106,339    1411
57,379    106,473    1409
57,369    106,376    1410
57,359    106,574    1407
57,349    106,334    1411
57,339    106,215    1412
57,329    106,509    1408
57,319    106,371    1410
57,309    106,620    1407
57,299    106,486    1409
57,289    106,330    1411
57,279    106,662    1406
57,269    106,463    1409
57,259    106,593    1407
57,249    106,685    1406
57,239    106,210    1412
57,229    106,690    1406
57,219    106,523    1408
57,209    107,048    1401
57,199    107,071    1401
57,189    107,127    1400
57,179    106,486    1409
57,169    106,750    1405
57,159    108,255    1386
57,149    106,602    1407
57,139    106,852    1404
57,129    107,010    1402
57,119    109,803    1366
57,109    106,685    1406
57,099    107,309    1398
57,089    110,394    1359
57,079    107,267    1398
57,069    192,000    781
57,059    111,194    1349
