Z-Pos[um]|R[MOhm]|I[pA]
59,050    106,261    1412
59,040    107,024    1402
59,030    106,514    1408
59,020    106,238    1412
59,010    106,436    1409
59,000    106,275    1411
58,990    106,344    1411
58,980    106,505    1408
58,970    106,114    1414
58,960    106,339    1411
58,950    106,408    1410
58,940    106,357    1410
58,930    106,431    1409
58,920    106,164    1413
58,910    106,380    1410
58,900    106,367    1410
58,890    106,123    1413
58,880    106,371    1410
58,870    106,096    1414
58,860    106,403    1410
58,850    106,192    1413
58,840    106,087    1414
58,830    106,219    1412
58,820    106,169    1413
58,810    106,261    1412
58,800    106,551    1408
58,790    106,390    1410
58,780    106,403    1410
58,770    106,197    1412
58,760    106,242    1412
58,750    106,403    1410
58,740    106,224    1412
58,730    106,206    1412
58,720    106,206    1412
58,710    106,137    1413
58,700    106,408    1410
58,690    106,399    1410
58,680    106,100    1414
58,670    106,298    1411
58,660    106,119    1414
58,650    106,371    1410
58,640    106,330    1411
58,630    106,082    1414
58,620    106,390    1410
58,610    106,330    1411
58,600    106,288    1411
58,590    106,146    1413
58,580    106,137    1413
58,570    106,311    1411
58,560    106,311    1411
58,550    106,390    1410
58,540    106,238    1412
58,530    106,091    1414
58,520    106,321    1411
58,510    106,201    1412
58,500    106,288    1411
58,490    106,261    1412
58,480    106,137    1413
58,470    106,265    1412
58,460    106,334    1411
58,450    106,348    1410
58,440    106,376    1410
58,430    106,119    1414
58,420    106,151    1413
58,410    106,505    1408
58,400    106,242    1412
58,390    106,348    1410
58,380    106,174    1413
58,370    106,247    1412
58,360    106,463    1409
58,350    106,155    1413
58,340    106,325    1411
58,330    106,426    1409
58,320    106,123    1413
58,310    106,344    1411
58,300    106,334    1411
58,290    106,100    1414
58,280    106,486    1409
58,270    106,422    1409
58,260    106,270    1411
58,250    106,505    1408
58,240    106,583    1407
58,230    106,252    1412
58,220    106,151    1413
58,210    106,114    1414
58,200    106,505    1408
58,190    106,270    1411
58,180    106,298    1411
58,170    106,187    1413
58,160    106,082    1414
58,150    106,362    1410
58,140    106,224    1412
58,130    106,344    1411
58,120    106,440    1409
58,110    106,123    1413
58,100    106,192    1413
58,090    106,408    1410
58,080    106,105    1414
58,070    106,316    1411
58,060    106,169    1413
58,050    106,505    1408
58,040    106,537    1408
58,030    106,183    1413
58,020    106,302    1411
58,010    106,215    1412
58,000    106,132    1413
57,990    106,385    1410
57,980    106,523    1408
57,970    106,155    1413
57,960    106,298    1411
57,950    106,348    1410
57,940    106,238    1412
57,930    106,477    1409
57,920    106,206    1412
57,910    106,141    1413
57,900    106,509    1408
57,890    106,146    1413
57,880    106,473    1409
57,870    106,256    1412
57,860    106,164    1413
57,850    106,422    1409
57,840    106,132    1413
57,830    106,445    1409
57,820    106,183    1413
57,810    106,284    1411
57,800    106,413    1410
57,790    106,275    1411
57,780    106,284    1411
57,770    106,293    1411
57,760    106,242    1412
57,750    106,473    1409
57,740    106,284    1411
57,730    106,096    1414
57,720    106,302    1411
57,710    106,362    1410
57,700    106,408    1410
57,690    106,390    1410
57,680    106,087    1414
57,670    106,275    1411
57,660    106,509    1408
57,650    106,187    1413
57,640    106,533    1408
57,630    106,178    1413
57,620    106,164    1413
57,610    106,454    1409
57,600    106,436    1409
57,590    106,477    1409
57,580    106,187    1413
57,570    106,022    1415
57,560    106,537    1408
57,550    106,348    1410
57,540    106,348    1410
57,530    106,279    1411
57,520    106,109    1414
57,510    106,560    1408
57,500    106,206    1412
57,490    106,399    1410
57,480    106,302    1411
57,470    106,284    1411
57,460    106,482    1409
57,450    106,413    1410
57,440    106,247    1412
57,430    106,560    1408
57,420    106,270    1411
57,410    106,454    1409
57,400    106,593    1407
57,390    106,178    1413
57,380    106,380    1410
57,370    106,713    1406
57,360    106,634    1407
57,350    106,625    1407
57,340    106,996    1402
57,330    106,843    1404
57,320    106,657    1406
57,310    106,899    1403
57,300    106,913    1403
57,290    106,806    1404
57,280    106,764    1405
57,270    106,783    1405
57,260    107,020    1402
57,250    106,565    1408
57,240    106,201    1412
57,230    106,574    1407
57,220    106,445    1409
57,210    106,551    1408
57,200    106,713    1406
57,190    106,537    1408
57,180    106,708    1406
57,170    106,657    1406
57,160    106,834    1404
57,150    107,034    1401
57,140    107,169    1400
57,130    107,136    1400
57,120    107,127    1400
57,110    107,010    1402
57,100    107,577    1394
57,090    111,254    1348
57,080    107,643    1393
57,070    110,142    1362
57,060    109,587    1369
