Z-Pos[um]|R[MOhm]|I[pA]
59,024    106,769    1405
59,014    106,834    1404
59,004    106,155    1413
58,994    106,380    1410
58,984    106,519    1408
58,974    106,334    1411
58,964    106,509    1408
58,954    106,288    1411
58,944    106,224    1412
58,934    106,542    1408
58,924    106,160    1413
58,914    106,436    1409
58,904    106,201    1412
58,894    106,348    1410
58,884    106,459    1409
58,874    106,224    1412
58,864    106,284    1411
58,854    106,385    1410
58,844    106,206    1412
58,834    106,417    1410
58,824    106,468    1409
58,814    106,073    1414
58,804    106,509    1408
58,794    106,473    1409
58,784    106,403    1410
58,774    106,367    1410
58,764    106,068    1414
58,754    106,509    1408
58,744    106,426    1409
58,734    106,496    1409
58,724    106,380    1410
58,714    106,247    1412
58,704    106,459    1409
58,694    106,321    1411
58,684    106,413    1410
58,674    106,321    1411
58,664    106,151    1413
58,654    106,440    1409
58,644    106,385    1410
58,634    106,556    1408
58,624    106,224    1412
58,614    106,279    1411
58,604    106,155    1413
58,594    106,551    1408
58,584    106,330    1411
58,574    106,275    1411
58,564    106,385    1410
58,554    106,187    1413
58,544    106,565    1408
58,534    106,417    1410
58,524    106,413    1410
58,514    106,496    1409
58,504    106,233    1412
58,494    106,491    1409
58,484    106,417    1410
58,474    106,105    1414
58,464    106,408    1410
58,454    106,380    1410
58,444    106,316    1411
58,434    106,500    1408
58,424    106,077    1414
58,414    106,431    1409
58,404    106,523    1408
58,394    106,215    1412
58,384    106,353    1410
58,374    106,279    1411
58,364    106,201    1412
58,354    106,482    1409
58,344    106,233    1412
58,334    106,380    1410
58,324    106,293    1411
58,314    106,229    1412
58,304    106,371    1410
58,294    106,224    1412
58,284    106,473    1409
58,274    106,311    1411
58,264    106,256    1412
58,254    106,473    1409
58,244    106,265    1412
58,234    106,302    1411
58,224    106,367    1410
58,214    106,339    1411
58,204    106,463    1409
58,194    106,486    1409
58,184    106,169    1413
58,174    106,436    1409
58,164    106,380    1410
58,154    106,473    1409
58,144    106,413    1410
58,134    106,178    1413
58,124    106,509    1408
58,114    106,192    1413
58,104    106,298    1411
58,094    106,376    1410
58,084    106,059    1414
58,074    106,380    1410
58,064    106,275    1411
58,054    106,321    1411
58,044    106,334    1411
58,034    106,064    1414
58,024    106,431    1409
58,014    106,256    1412
58,004    106,311    1411
57,994    106,459    1409
57,984    106,114    1414
57,974    106,348    1410
57,964    106,348    1410
57,954    106,408    1410
57,944    106,741    1405
57,934    106,440    1409
57,924    106,560    1408
57,914    106,708    1406
57,904    106,759    1405
57,894    106,431    1409
57,884    106,759    1405
57,874    106,588    1407
57,864    106,496    1409
57,854    106,681    1406
57,844    106,528    1408
57,834    106,426    1409
57,824    106,676    1406
57,814    106,875    1404
57,804    106,307    1411
57,794    106,486    1409
57,784    106,750    1405
57,774    106,671    1406
57,764    106,625    1407
57,754    106,996    1402
57,744    106,899    1403
57,734    106,713    1406
57,724    106,634    1407
57,714    106,560    1408
57,704    106,367    1410
57,694    106,602    1407
57,684    106,454    1409
57,674    106,215    1412
57,664    106,468    1409
57,654    106,316    1411
57,644    106,496    1409
57,634    106,408    1410
57,624    106,119    1414
57,614    106,528    1408
57,604    106,620    1407
57,594    106,353    1410
57,584    106,422    1409
57,574    106,087    1414
57,564    106,390    1410
57,554    106,482    1409
57,544    106,367    1410
57,534    106,468    1409
57,524    106,284    1411
57,514    106,367    1410
57,504    106,431    1409
57,494    106,215    1412
57,484    106,565    1408
57,474    106,197    1412
57,464    106,362    1410
57,454    106,597    1407
57,444    106,339    1411
57,434    106,560    1408
57,424    106,256    1412
57,414    106,311    1411
57,404    106,533    1408
57,394    106,505    1408
57,384    106,279    1411
57,374    106,528    1408
57,364    106,445    1409
57,354    106,574    1407
57,344    106,496    1409
57,334    106,187    1413
57,324    106,486    1409
57,314    106,690    1406
57,304    106,344    1411
57,294    106,625    1407
57,284    106,353    1410
57,274    106,353    1410
57,264    106,894    1403
57,254    106,824    1404
57,244    106,657    1406
57,234    106,773    1405
57,224    106,593    1407
57,214    106,750    1405
57,204    106,565    1408
57,194    106,908    1403
57,184    106,848    1404
57,174    106,174    1413
57,164    106,477    1409
57,154    106,815    1404
57,144    106,750    1405
57,134    106,889    1403
57,124    106,509    1408
57,114    106,950    1403
57,104    106,667    1406
57,094    106,838    1404
57,084    107,441    1396
57,074    107,464    1396
57,064    107,024    1402
57,054    108,017    1389
57,044    115,554    1298
57,034    107,347    1397
57,024    112,270    1336
57,014    108,293    1385
57,004    451,267    332
