Z-Pos[um]|R[MOhm]|I[pA]
59,013    106,519    1408
59,003    107,169    1400
58,993    106,509    1408
58,983    106,681    1406
58,973    106,311    1411
58,963    106,509    1408
58,953    106,408    1410
58,943    106,463    1409
58,933    106,477    1409
58,923    106,151    1413
58,913    106,431    1409
58,903    106,593    1407
58,893    106,426    1409
58,883    106,463    1409
58,873    106,288    1411
58,863    106,357    1410
58,853    106,542    1408
58,843    106,316    1411
58,833    106,348    1410
58,823    106,247    1412
58,813    106,302    1411
58,803    106,583    1407
58,793    106,330    1411
58,783    106,399    1410
58,773    106,275    1411
58,763    106,417    1410
58,753    106,653    1406
58,743    106,275    1411
58,733    106,367    1410
58,723    106,284    1411
58,713    106,445    1409
58,703    106,473    1409
58,693    106,390    1410
58,683    106,151    1413
58,673    106,362    1410
58,663    106,468    1409
58,653    106,417    1410
58,643    106,514    1408
58,633    106,174    1413
58,623    106,288    1411
58,613    106,450    1409
58,603    106,486    1409
58,593    106,385    1410
58,583    106,018    1415
58,573    106,256    1412
58,563    106,565    1408
58,553    106,316    1411
58,543    106,311    1411
58,533    106,183    1413
58,523    106,316    1411
58,513    106,376    1410
58,503    105,972    1415
58,493    106,422    1409
58,483    106,275    1411
58,473    106,325    1411
58,463    106,551    1408
58,453    106,256    1412
58,443    106,146    1413
58,433    106,440    1409
58,423    106,426    1409
58,413    106,390    1410
58,403    106,440    1409
58,393    106,339    1411
58,383    106,523    1408
58,373    106,426    1409
58,363    106,385    1410
58,353    106,390    1410
58,343    106,160    1413
58,333    106,403    1410
58,323    106,491    1409
58,313    106,376    1410
58,303    106,741    1405
58,293    106,574    1407
58,283    106,783    1405
58,273    106,560    1408
58,263    106,353    1410
58,253    106,252    1412
58,243    106,454    1409
58,233    106,367    1410
58,223    106,459    1409
58,213    106,436    1409
58,203    106,265    1412
58,193    106,293    1411
58,183    106,229    1412
58,173    106,357    1410
58,163    106,380    1410
58,153    106,151    1413
58,143    106,307    1411
58,133    106,486    1409
58,123    106,302    1411
58,113    106,357    1410
58,103    106,256    1412
58,093    106,197    1412
58,083    106,968    1402
58,073    106,275    1411
58,063    106,146    1413
58,053    106,459    1409
58,043    106,339    1411
58,033    106,371    1410
58,023    106,298    1411
58,013    106,316    1411
58,003    106,105    1414
57,993    106,602    1407
57,983    106,119    1414
57,973    106,348    1410
57,963    106,192    1413
57,953    106,298    1411
57,943    106,459    1409
57,933    106,109    1414
57,923    106,293    1411
57,913    106,330    1411
57,903    106,155    1413
57,893    106,505    1408
57,883    106,174    1413
57,873    106,403    1410
57,863    106,348    1410
57,853    106,316    1411
57,843    106,339    1411
57,833    106,316    1411
57,823    106,261    1412
57,813    106,468    1409
57,803    106,302    1411
57,793    106,473    1409
57,783    106,357    1410
57,773    106,197    1412
57,763    106,215    1412
57,753    106,611    1407
57,743    106,298    1411
57,733    106,293    1411
57,723    106,293    1411
57,713    106,611    1407
57,703    106,861    1404
57,693    106,838    1404
57,683    106,648    1406
57,673    106,215    1412
57,663    106,593    1407
57,653    106,302    1411
57,643    106,334    1411
57,633    106,302    1411
57,623    106,367    1410
57,613    106,607    1407
57,603    106,288    1411
57,593    106,500    1408
57,583    106,321    1411
57,573    106,178    1413
57,563    106,602    1407
57,553    106,357    1410
57,543    106,247    1412
57,533    106,394    1410
57,523    106,399    1410
57,513    106,422    1409
57,503    106,390    1410
57,493    106,321    1411
57,483    106,699    1406
57,473    106,450    1409
57,463    106,560    1408
57,453    106,436    1409
57,443    106,169    1413
57,433    106,505    1408
57,423    106,579    1407
57,413    106,463    1409
57,403    106,468    1409
57,393    106,178    1413
57,383    106,408    1410
57,373    106,657    1406
57,363    106,385    1410
57,353    106,399    1410
57,343    106,293    1411
57,333    106,468    1409
57,323    106,500    1408
57,313    106,376    1410
57,303    106,546    1408
57,293    106,229    1412
57,283    106,371    1410
57,273    106,588    1407
57,263    106,468    1409
57,253    106,390    1410
57,243    106,321    1411
57,233    106,509    1408
57,223    106,796    1405
57,213    106,500    1408
57,203    106,514    1408
57,193    107,521    1395
57,183    106,959    1402
57,173    106,750    1405
57,163    106,496    1409
57,153    106,694    1406
57,143    106,773    1405
57,133    106,852    1404
57,123    106,894    1403
57,113    106,764    1405
57,103    106,871    1404
57,093    106,843    1404
57,083    109,193    1374
57,073    107,601    1394
57,063    108,279    1385
57,053    108,317    1385
57,043    107,898    1390
57,033    122,147    1228
57,023    131,605    1140
