Z-Pos[um]|R[MOhm]|I[pA]
61,085    106,339    1411
61,075    106,834    1404
61,065    106,634    1407
61,055    106,284    1411
61,045    106,293    1411
61,035    106,783    1405
61,025    106,880    1403
61,015    106,367    1410
61,005    106,298    1411
60,995    106,242    1412
60,985    106,450    1409
60,975    106,639    1407
60,965    106,394    1410
60,955    106,275    1411
60,945    106,275    1411
60,935    106,302    1411
60,925    106,463    1409
60,915    106,348    1410
60,905    106,367    1410
60,895    106,233    1412
60,885    106,174    1413
60,875    106,505    1408
60,865    106,399    1410
60,855    106,128    1413
60,845    106,265    1412
60,835    106,201    1412
60,825    106,597    1407
60,815    106,496    1409
60,805    106,284    1411
60,795    106,422    1409
60,785    106,394    1410
60,775    106,394    1410
60,765    106,357    1410
60,755    106,164    1413
60,745    106,399    1410
60,735    106,436    1409
60,725    106,482    1409
60,715    106,256    1412
60,705    106,151    1413
60,695    106,348    1410
60,685    106,556    1408
60,675    106,482    1409
60,665    106,275    1411
60,655    106,132    1413
60,645    106,339    1411
60,635    106,385    1410
60,625    106,119    1414
60,615    106,486    1409
60,605    106,091    1414
60,595    106,261    1412
60,585    106,486    1409
60,575    106,307    1411
60,565    106,357    1410
60,555    106,265    1412
60,545    106,380    1410
60,535    106,376    1410
60,525    106,284    1411
60,515    106,431    1409
60,505    106,109    1414
60,495    106,109    1414
60,485    106,376    1410
60,475    106,385    1410
60,465    106,509    1408
60,455    106,634    1407
60,445    106,454    1409
60,435    106,399    1410
60,425    106,408    1410
60,415    106,027    1415
60,405    106,357    1410
60,395    106,252    1412
60,385    106,426    1409
60,375    106,293    1411
60,365    106,022    1415
60,355    106,376    1410
60,345    106,913    1403
60,335    106,759    1405
60,325    106,787    1405
60,315    106,722    1406
60,305    106,824    1404
60,295    106,657    1406
60,285    106,667    1406
60,275    106,885    1403
60,265    106,927    1403
60,255    106,602    1407
60,245    106,588    1407
60,235    106,463    1409
60,225    106,556    1408
60,215    106,732    1405
60,205    106,565    1408
60,195    106,362    1410
60,185    106,505    1408
60,175    106,275    1411
60,165    106,509    1408
60,155    106,275    1411
60,145    106,238    1412
60,135    106,459    1409
60,125    106,215    1412
60,115    106,321    1411
60,105    106,302    1411
60,095    106,242    1412
60,085    106,500    1408
60,075    106,233    1412
60,065    106,192    1413
60,055    106,357    1410
60,045    106,160    1413
60,035    106,505    1408
60,025    106,288    1411
60,015    106,316    1411
60,005    106,330    1411
59,995    106,247    1412
59,985    106,486    1409
59,975    106,394    1410
59,965    106,155    1413
59,955    106,298    1411
59,945    106,256    1412
59,935    106,440    1409
59,925    106,704    1406
59,915    106,546    1408
59,905    106,616    1407
59,895    106,477    1409
59,885    106,500    1408
59,875    106,077    1414
59,865    106,450    1409
59,855    106,321    1411
59,845    106,339    1411
59,835    106,390    1410
59,825    106,109    1414
59,815    106,348    1410
59,805    106,247    1412
59,795    106,219    1412
59,785    106,321    1411
59,775    106,137    1413
59,765    106,311    1411
59,755    106,178    1413
59,745    106,413    1410
59,735    106,727    1405
59,725    106,486    1409
59,715    106,371    1410
59,705    106,685    1406
59,695    106,477    1409
59,685    106,307    1411
59,675    106,445    1409
59,665    106,662    1406
59,655    106,459    1409
59,645    106,519    1408
59,635    106,620    1407
59,625    106,192    1413
59,615    106,468    1409
59,605    106,164    1413
59,595    106,229    1412
59,585    106,426    1409
59,575    106,321    1411
59,565    106,431    1409
59,555    106,339    1411
59,545    106,082    1414
59,535    106,745    1405
59,525    106,261    1412
59,515    106,270    1411
59,505    106,371    1410
59,495    106,064    1414
59,485    106,390    1410
59,475    106,293    1411
59,465    106,298    1411
59,455    106,224    1412
59,445    106,164    1413
59,435    106,468    1409
59,425    106,224    1412
59,415    106,174    1413
59,405    106,353    1410
59,395    106,109    1414
59,385    106,206    1412
59,375    106,450    1409
59,365    106,174    1413
59,355    106,436    1409
59,345    106,064    1414
59,335    106,114    1414
59,325    106,500    1408
59,315    106,192    1413
59,305    106,371    1410
59,295    106,330    1411
59,285    106,027    1415
59,275    106,570    1408
59,265    106,224    1412
59,255    106,380    1410
59,245    106,307    1411
59,235    106,288    1411
59,225    106,593    1407
59,215    106,496    1409
59,205    106,399    1410
59,195    106,639    1407
59,185    106,537    1408
59,175    106,468    1409
59,165    106,639    1407
59,155    106,422    1409
59,145    106,371    1410
59,135    106,491    1409
59,125    106,169    1413
59,115    106,344    1411
59,105    106,219    1412
59,095    106,187    1413
59,085    106,514    1408
59,075    106,436    1409
59,065    106,119    1414
59,055    106,252    1412
59,045    106,210    1412
59,035    106,330    1411
59,025    106,486    1409
59,015    106,096    1414
59,005    106,491    1409
58,995    106,321    1411
58,985    106,385    1410
58,975    106,275    1411
58,965    106,000    1415
58,955    106,482    1409
58,945    106,321    1411
58,935    106,422    1409
58,925    106,197    1412
58,915    106,201    1412
58,905    106,233    1412
58,895    106,436    1409
58,885    106,371    1410
58,875    106,334    1411
58,865    106,344    1411
58,855    106,256    1412
58,845    106,519    1408
58,835    106,279    1411
58,825    106,353    1410
58,815    106,431    1409
58,805    106,307    1411
58,795    106,468    1409
58,785    106,500    1408
58,775    106,219    1412
58,765    106,367    1410
58,755    106,348    1410
58,745    106,482    1409
58,735    106,514    1408
58,725    106,105    1414
58,715    106,486    1409
58,705    106,201    1412
58,695    106,284    1411
58,685    106,450    1409
58,675    106,041    1415
58,665    106,390    1410
58,655    106,169    1413
58,645    106,394    1410
58,635    106,440    1409
58,625    106,073    1414
58,615    106,380    1410
58,605    106,334    1411
58,595    106,206    1412
58,585    106,810    1404
58,575    106,556    1408
58,565    106,174    1413
58,555    106,551    1408
58,545    106,224    1412
58,535    106,279    1411
58,525    106,279    1411
58,515    106,265    1412
58,505    106,620    1407
58,495    106,468    1409
58,485    106,229    1412
58,475    106,413    1410
58,465    106,371    1410
58,455    106,344    1411
58,445    106,445    1409
58,435    106,009    1415
58,425    106,348    1410
58,415    106,431    1409
58,405    106,440    1409
58,395    106,413    1410
58,385    106,160    1413
58,375    106,367    1410
58,365    106,422    1409
58,355    106,408    1410
58,345    106,302    1411
58,335    106,073    1414
58,325    106,302    1411
58,315    106,431    1409
58,305    106,325    1411
58,295    106,440    1409
58,285    106,523    1408
58,275    106,128    1413
58,265    106,422    1409
58,255    106,215    1412
58,245    106,399    1410
58,235    106,284    1411
58,225    106,233    1412
58,215    106,436    1409
58,205    106,187    1413
58,195    106,307    1411
58,185    106,146    1413
58,175    106,371    1410
58,165    106,593    1407
58,155    106,242    1412
58,145    106,169    1413
58,135    106,197    1412
58,125    106,316    1411
58,115    106,390    1410
58,105    106,197    1412
58,095    106,119    1414
58,085    106,298    1411
58,075    106,210    1412
58,065    106,413    1410
58,055    106,880    1403
58,045    106,542    1408
58,035    106,579    1407
58,025    106,514    1408
58,015    106,141    1413
58,005    106,431    1409
57,995    106,073    1414
57,985    106,371    1410
57,975    106,394    1410
57,965    106,279    1411
57,955    106,417    1410
57,945    106,334    1411
57,935    106,459    1409
57,925    106,426    1409
57,915    106,298    1411
57,905    106,311    1411
57,895    106,224    1412
57,885    106,339    1411
57,875    106,945    1403
57,865    106,422    1409
57,855    106,252    1412
57,845    106,376    1410
57,835    106,141    1413
57,825    106,459    1409
57,815    106,597    1407
57,805    106,178    1413
57,795    106,403    1410
57,785    106,473    1409
57,775    106,344    1411
57,765    106,141    1413
57,755    106,459    1409
57,745    106,399    1410
57,735    106,385    1410
57,725    106,380    1410
57,715    106,059    1414
57,705    106,505    1408
57,695    107,234    1399
57,685    106,270    1411
57,675    106,224    1412
57,665    106,261    1412
57,655    106,505    1408
57,645    106,588    1407
57,635    106,302    1411
57,625    106,224    1412
57,615    106,307    1411
57,605    106,422    1409
57,595    106,533    1408
57,585    106,454    1409
57,575    106,597    1407
57,565    106,690    1406
57,555    106,657    1406
57,545    106,330    1411
57,535    106,551    1408
57,525    106,219    1412
57,515    106,390    1410
57,505    106,523    1408
57,495    106,339    1411
57,485    106,413    1410
57,475    106,450    1409
57,465    106,344    1411
57,455    106,537    1408
57,445    106,445    1409
57,435    106,229    1412
57,425    106,496    1409
57,415    106,477    1409
57,405    106,634    1407
57,395    106,509    1408
57,385    106,417    1410
57,375    106,450    1409
57,365    106,496    1409
57,355    106,685    1406
57,345    106,468    1409
57,335    106,348    1410
57,325    106,523    1408
57,315    106,454    1409
57,305    106,611    1407
57,295    106,787    1405
57,285    106,519    1408
57,275    106,653    1406
57,265    106,399    1410
57,255    106,732    1405
57,245    106,810    1404
57,235    106,454    1409
57,225    108,198    1386
57,215    106,889    1403
57,205    106,769    1405
57,195    106,889    1403
57,185    107,295    1398
57,175    107,244    1399
57,165    107,192    1399
57,155    107,277    1398
57,145    107,006    1402
57,135    107,230    1399
57,125    115,826    1295
57,115    107,605    1394
57,105    178,048    842
57,095    109,612    1368
