Z-Pos[um]|R[MOhm]|I[pA]
59,010    106,270    1411
59,000    106,922    1403
58,990    106,565    1408
58,980    106,685    1406
58,970    106,806    1404
58,960    106,500    1408
58,950    106,422    1409
58,940    106,574    1407
58,930    106,325    1411
58,920    106,505    1408
58,910    106,371    1410
58,900    106,367    1410
58,890    106,440    1409
58,880    106,256    1412
58,870    106,454    1409
58,860    106,367    1410
58,850    106,275    1411
58,840    106,390    1410
58,830    106,302    1411
58,820    106,238    1412
58,810    106,334    1411
58,800    106,270    1411
58,790    106,509    1408
58,780    106,463    1409
58,770    106,215    1412
58,760    106,403    1410
58,750    106,477    1409
58,740    106,473    1409
58,730    106,657    1406
58,720    106,197    1412
58,710    106,399    1410
58,700    106,252    1412
58,690    106,265    1412
58,680    106,579    1407
58,670    106,155    1413
58,660    106,408    1410
58,650    106,284    1411
58,640    106,339    1411
58,630    106,353    1410
58,620    106,109    1414
58,610    106,468    1409
58,600    106,284    1411
58,590    106,380    1410
58,580    106,491    1409
58,570    106,215    1412
58,560    106,500    1408
58,550    106,275    1411
58,540    106,307    1411
58,530    106,574    1407
58,520    106,367    1410
58,510    106,288    1411
58,500    106,473    1409
58,490    106,132    1413
58,480    106,311    1411
58,470    106,197    1412
58,460    106,132    1413
58,450    106,491    1409
58,440    106,210    1412
58,430    106,284    1411
58,420    106,252    1412
58,410    106,082    1414
58,400    106,514    1408
58,390    106,390    1410
58,380    106,321    1411
58,370    106,270    1411
58,360    106,206    1412
58,350    106,330    1411
58,340    106,279    1411
58,330    106,293    1411
58,320    106,380    1410
58,310    106,229    1412
58,300    106,321    1411
58,290    106,114    1414
58,280    106,344    1411
58,270    106,445    1409
58,260    106,219    1412
58,250    106,528    1408
58,240    106,348    1410
58,230    106,242    1412
58,220    106,459    1409
58,210    106,293    1411
58,200    106,505    1408
58,190    106,523    1408
58,180    106,348    1410
58,170    106,325    1411
58,160    106,210    1412
58,150    106,325    1411
58,140    106,482    1409
58,130    106,054    1414
58,120    106,440    1409
58,110    106,265    1412
58,100    106,385    1410
58,090    106,496    1409
58,080    106,059    1414
58,070    106,528    1408
58,060    106,357    1410
58,050    106,288    1411
58,040    106,454    1409
58,030    106,164    1413
58,020    106,519    1408
58,010    106,334    1411
58,000    106,293    1411
57,990    106,477    1409
57,980    106,261    1412
57,970    106,229    1412
57,960    106,486    1409
57,950    106,657    1406
57,940    106,399    1410
57,930    106,565    1408
57,920    106,630    1407
57,910    106,718    1406
57,900    106,718    1406
57,890    106,473    1409
57,880    106,463    1409
57,870    106,500    1408
57,860    106,206    1412
57,850    107,211    1399
57,840    106,556    1408
57,830    106,261    1412
57,820    106,657    1406
57,810    106,454    1409
57,800    106,302    1411
57,790    106,316    1411
57,780    106,413    1410
57,770    106,468    1409
57,760    106,399    1410
57,750    106,123    1413
57,740    106,454    1409
57,730    106,593    1407
57,720    106,339    1411
57,710    106,399    1410
57,700    106,146    1413
57,690    106,376    1410
57,680    106,463    1409
57,670    106,201    1412
57,660    106,270    1411
57,650    106,192    1413
57,640    106,252    1412
57,630    106,607    1407
57,620    106,357    1410
57,610    106,422    1409
57,600    106,215    1412
57,590    106,298    1411
57,580    106,685    1406
57,570    106,426    1409
57,560    106,298    1411
57,550    106,311    1411
57,540    106,413    1410
57,530    106,491    1409
57,520    106,413    1410
57,510    106,288    1411
57,500    106,380    1410
57,490    106,284    1411
57,480    106,542    1408
57,470    106,380    1410
57,460    106,311    1411
57,450    106,560    1408
57,440    106,288    1411
57,430    106,750    1405
57,420    106,496    1409
57,410    106,275    1411
57,400    106,496    1409
57,390    106,362    1410
57,380    106,537    1408
57,370    106,616    1407
57,360    107,300    1398
57,350    106,694    1406
57,340    106,436    1409
57,330    106,334    1411
57,320    106,265    1412
57,310    106,413    1410
57,300    106,611    1407
57,290    106,311    1411
57,280    106,311    1411
57,270    106,574    1407
57,260    106,367    1410
57,250    106,519    1408
57,240    106,685    1406
57,230    106,348    1410
57,220    106,607    1407
57,210    106,509    1408
57,200    106,685    1406
57,190    106,662    1406
57,180    106,403    1410
57,170    106,694    1406
57,160    106,357    1410
57,150    106,787    1405
57,140    107,309    1398
57,130    106,556    1408
57,120    106,861    1404
57,110    107,169    1400
57,100    107,225    1399
57,090    107,122    1400
57,080    108,298    1385
57,070    107,062    1401
57,060    106,755    1405
57,050    108,007    1389
57,040    109,135    1374
57,030    107,347    1397
57,020    107,704    1393
57,010    110,256    1360
