Z-Pos[um]|R[MOhm]|I[pA]
59,043    106,279    1411
59,033    107,066    1401
59,023    106,353    1410
59,013    106,265    1412
59,003    106,344    1411
58,993    106,219    1412
58,983    106,426    1409
58,973    106,376    1410
58,963    106,109    1414
58,953    106,473    1409
58,943    106,307    1411
58,933    106,509    1408
58,923    106,676    1406
58,913    106,321    1411
58,903    106,546    1408
58,893    106,685    1406
58,883    106,477    1409
58,873    106,422    1409
58,863    106,371    1410
58,853    106,385    1410
58,843    106,625    1407
58,833    106,551    1408
58,823    106,362    1410
58,813    106,514    1408
58,803    106,708    1406
58,793    106,371    1410
58,783    106,353    1410
58,773    106,321    1411
58,763    106,114    1414
58,753    106,477    1409
58,743    106,169    1413
58,733    106,380    1410
58,723    106,523    1408
58,713    106,519    1408
58,703    106,371    1410
58,693    106,270    1411
58,683    106,385    1410
58,673    106,284    1411
58,663    106,450    1409
58,653    106,560    1408
58,643    106,050    1414
58,633    106,256    1412
58,623    106,307    1411
58,613    106,440    1409
58,603    106,311    1411
58,593    106,064    1414
58,583    106,459    1409
58,573    106,210    1412
58,563    106,183    1413
58,553    106,399    1410
58,543    106,187    1413
58,533    106,362    1410
58,523    106,210    1412
58,513    106,417    1410
58,503    106,344    1411
58,493    106,229    1412
58,483    106,413    1410
58,473    106,463    1409
58,463    106,399    1410
58,453    106,454    1409
58,443    106,197    1412
58,433    106,077    1414
58,423    106,417    1410
58,413    106,334    1411
58,403    106,174    1413
58,393    106,261    1412
58,383    106,330    1411
58,373    106,500    1408
58,363    106,371    1410
58,353    106,298    1411
58,343    106,528    1408
58,333    106,275    1411
58,323    106,275    1411
58,313    106,321    1411
58,303    106,045    1414
58,293    106,380    1410
58,283    106,500    1408
58,273    106,330    1411
58,263    106,491    1409
58,253    106,192    1413
58,243    106,238    1412
58,233    106,500    1408
58,223    106,215    1412
58,213    106,256    1412
58,203    106,123    1413
58,193    106,247    1412
58,183    106,579    1407
58,173    106,187    1413
58,163    106,496    1409
58,153    106,311    1411
58,143    106,146    1413
58,133    106,459    1409
58,123    106,201    1412
58,113    106,376    1410
58,103    106,302    1411
58,093    106,261    1412
58,083    106,450    1409
58,073    106,123    1413
58,063    106,344    1411
58,053    106,302    1411
58,043    106,616    1407
58,033    106,611    1407
58,023    106,376    1410
58,013    106,032    1415
58,003    106,362    1410
57,993    106,330    1411
57,983    106,174    1413
57,973    106,334    1411
57,963    106,105    1414
57,953    106,321    1411
57,943    106,261    1412
57,933    106,183    1413
57,923    106,380    1410
57,913    106,183    1413
57,903    106,307    1411
57,893    106,339    1411
57,883    106,183    1413
57,873    106,357    1410
57,863    106,141    1413
57,853    106,371    1410
57,843    106,519    1408
57,833    106,224    1412
57,823    106,316    1411
57,813    106,224    1412
57,803    106,334    1411
57,793    106,634    1407
57,783    106,247    1412
57,773    106,252    1412
57,763    106,183    1413
57,753    106,357    1410
57,743    106,408    1410
57,733    106,344    1411
57,723    106,137    1413
57,713    106,160    1413
57,703    106,183    1413
57,693    106,426    1409
57,683    106,385    1410
57,673    106,233    1412
57,663    106,403    1410
57,653    106,288    1411
57,643    106,440    1409
57,633    106,261    1412
57,623    106,224    1412
57,613    106,413    1410
57,603    106,316    1411
57,593    106,445    1409
57,583    106,736    1405
57,573    106,394    1410
57,563    106,192    1413
57,553    106,713    1406
57,543    106,247    1412
57,533    106,215    1412
57,523    106,288    1411
57,513    106,321    1411
57,503    106,755    1405
57,493    106,298    1411
57,483    106,362    1410
57,473    106,169    1413
57,463    106,376    1410
57,453    106,468    1409
57,443    106,348    1410
57,433    106,238    1412
57,423    106,399    1410
57,413    106,302    1411
57,403    106,560    1408
57,393    106,422    1409
57,383    106,367    1410
57,373    106,344    1411
57,363    106,459    1409
57,353    106,908    1403
57,343    107,062    1401
57,333    106,764    1405
57,323    106,810    1404
57,313    106,996    1402
57,303    106,880    1403
57,293    106,201    1412
57,283    106,284    1411
57,273    106,667    1406
57,263    106,463    1409
57,253    106,570    1408
57,243    106,644    1407
57,233    106,630    1407
57,223    106,648    1406
57,213    106,523    1408
57,203    106,450    1409
57,193    106,718    1406
57,183    106,390    1410
57,173    106,630    1407
57,163    106,801    1404
57,153    106,625    1407
57,143    106,385    1410
57,133    107,094    1401
57,123    107,029    1401
57,113    106,778    1405
57,103    106,834    1404
57,093    108,064    1388
57,083    109,925    1365
57,073    106,783    1405
57,063    186,578    804
57,053    107,785    1392
57,043    108,898    1377
57,033    115,592    1298
