Z-Pos[um]|R[MOhm]|I[pA]
61,051    106,330    1411
61,041    106,950    1403
61,031    106,496    1409
61,021    106,385    1410
61,011    106,436    1409
61,001    106,242    1412
60,991    106,477    1409
60,981    106,399    1410
60,971    106,385    1410
60,961    106,486    1409
60,951    106,238    1412
60,941    106,376    1410
60,931    106,500    1408
60,921    106,146    1413
60,911    106,344    1411
60,901    106,219    1412
60,891    106,279    1411
60,881    106,385    1410
60,871    106,275    1411
60,861    106,307    1411
60,851    106,279    1411
60,841    106,036    1415
60,831    106,593    1407
60,821    106,123    1413
60,811    106,265    1412
60,801    106,302    1411
60,791    106,238    1412
60,781    106,509    1408
60,771    106,348    1410
60,761    106,279    1411
60,751    106,311    1411
60,741    106,316    1411
60,731    106,413    1410
60,721    106,219    1412
60,711    106,219    1412
60,701    106,523    1408
60,691    106,344    1411
60,681    106,431    1409
60,671    106,436    1409
60,661    106,077    1414
60,651    106,380    1410
60,641    106,339    1411
60,631    107,281    1398
60,621    106,362    1410
60,611    106,252    1412
60,601    106,307    1411
60,591    106,376    1410
60,581    106,215    1412
60,571    106,321    1411
60,561    106,307    1411
60,551    106,496    1409
60,541    106,727    1405
60,531    106,634    1407
60,521    106,371    1410
60,511    106,486    1409
60,501    106,667    1406
60,491    106,275    1411
60,481    106,634    1407
60,471    106,871    1404
60,461    106,750    1405
60,451    106,546    1408
60,441    106,718    1406
60,431    106,913    1403
60,421    106,708    1406
60,411    106,708    1406
60,401    106,574    1407
60,391    106,750    1405
60,381    106,815    1404
60,371    106,634    1407
60,361    106,514    1408
60,351    106,270    1411
60,341    106,119    1414
60,331    106,570    1408
60,321    106,224    1412
60,311    106,403    1410
60,301    106,334    1411
60,291    106,229    1412
60,281    106,718    1406
60,271    106,505    1408
60,261    106,210    1412
60,251    106,505    1408
60,241    106,261    1412
60,231    106,371    1410
60,221    106,390    1410
60,211    106,192    1413
60,201    106,852    1404
60,191    106,662    1406
60,181    106,059    1414
60,171    106,307    1411
60,161    106,316    1411
60,151    106,593    1407
60,141    106,192    1413
60,131    106,210    1412
60,121    105,726    1419
60,111    106,597    1407
60,101    106,233    1412
60,091    106,197    1412
60,081    106,519    1408
60,071    106,546    1408
60,061    106,588    1407
60,051    106,676    1406
60,041    106,376    1410
60,031    106,463    1409
60,021    106,685    1406
60,011    106,348    1410
60,001    106,685    1406
59,991    106,602    1407
59,981    106,607    1407
59,971    106,556    1408
59,961    106,593    1407
59,951    106,440    1409
59,941    106,261    1412
59,931    106,371    1410
59,921    106,376    1410
59,911    106,109    1414
59,901    106,362    1410
59,891    106,316    1411
59,881    106,367    1410
59,871    106,574    1407
59,861    106,219    1412
59,851    106,454    1409
59,841    106,298    1411
59,831    106,256    1412
59,821    106,426    1409
59,811    106,210    1412
59,801    106,413    1410
59,791    106,445    1409
59,781    106,201    1412
59,771    106,477    1409
59,761    106,247    1412
59,751    106,376    1410
59,741    106,357    1410
59,731    106,325    1411
59,721    106,685    1406
59,711    106,362    1410
59,701    106,371    1410
59,691    106,450    1409
59,681    106,463    1409
59,671    106,275    1411
59,661    106,403    1410
59,651    106,293    1411
59,641    106,505    1408
59,631    106,597    1407
59,621    106,426    1409
59,611    106,639    1407
59,601    106,722    1406
59,591    106,486    1409
59,581    106,528    1408
59,571    106,408    1410
59,561    106,330    1411
59,551    106,348    1410
59,541    106,353    1410
59,531    106,256    1412
59,521    106,353    1410
59,511    106,316    1411
59,501    106,755    1405
59,491    106,353    1410
59,481    106,082    1414
59,471    106,344    1411
59,461    106,528    1408
59,451    106,311    1411
59,441    106,403    1410
59,431    106,141    1413
59,421    106,298    1411
59,411    106,422    1409
59,401    106,408    1410
59,391    106,454    1409
59,381    106,073    1414
59,371    106,334    1411
59,361    106,422    1409
59,351    106,169    1413
59,341    106,496    1409
59,331    106,307    1411
59,321    106,164    1413
59,311    106,620    1407
59,301    106,311    1411
59,291    106,417    1410
59,281    106,344    1411
59,271    106,224    1412
59,261    106,565    1408
59,251    106,422    1409
59,241    106,183    1413
59,231    106,367    1410
59,221    106,123    1413
59,211    106,546    1408
59,201    106,422    1409
59,191    106,178    1413
59,181    106,445    1409
59,171    106,242    1412
59,161    106,450    1409
59,151    106,334    1411
59,141    106,270    1411
59,131    106,500    1408
59,121    106,523    1408
59,111    106,270    1411
59,101    106,380    1410
59,091    106,105    1414
59,081    106,367    1410
59,071    106,496    1409
59,061    106,380    1410
59,051    106,468    1409
59,041    106,440    1409
59,031    106,252    1412
59,021    106,394    1410
59,011    106,201    1412
59,001    106,224    1412
58,991    106,247    1412
58,981    106,325    1411
58,971    106,394    1410
58,961    106,265    1412
58,951    106,330    1411
58,941    106,482    1409
58,931    106,348    1410
58,921    106,403    1410
58,911    106,344    1411
58,901    106,210    1412
58,891    106,607    1407
58,881    106,394    1410
58,871    106,468    1409
58,861    106,344    1411
58,851    106,275    1411
58,841    106,417    1410
58,831    106,334    1411
58,821    106,528    1408
58,811    106,496    1409
58,801    106,229    1412
58,791    106,431    1409
58,781    106,542    1408
58,771    106,390    1410
58,761    106,302    1411
58,751    106,233    1412
58,741    106,311    1411
58,731    106,459    1409
58,721    106,344    1411
58,711    106,311    1411
58,701    106,311    1411
58,691    106,174    1413
58,681    106,528    1408
58,671    106,431    1409
58,661    106,242    1412
58,651    106,454    1409
58,641    106,238    1412
58,631    106,556    1408
58,621    106,727    1405
58,611    106,519    1408
58,601    106,982    1402
58,591    106,408    1410
58,581    106,284    1411
58,571    106,390    1410
58,561    106,454    1409
58,551    106,302    1411
58,541    106,824    1404
58,531    106,330    1411
58,521    106,169    1413
58,511    106,325    1411
58,501    106,477    1409
58,491    106,523    1408
58,481    106,367    1410
58,471    106,132    1413
58,461    106,311    1411
58,451    106,362    1410
58,441    106,279    1411
58,431    106,468    1409
58,421    106,114    1414
58,411    106,114    1414
58,401    106,676    1406
58,391    106,146    1413
58,381    106,233    1412
58,371    106,307    1411
58,361    106,279    1411
58,351    106,560    1408
58,341    106,380    1410
58,331    106,431    1409
58,321    106,256    1412
58,311    106,238    1412
58,301    106,445    1409
58,291    106,265    1412
58,281    106,252    1412
58,271    106,247    1412
58,261    106,233    1412
58,251    106,486    1409
58,241    106,353    1410
58,231    106,261    1412
58,221    106,344    1411
58,211    106,431    1409
58,201    106,583    1407
58,191    106,371    1410
58,181    106,252    1412
58,171    106,491    1409
58,161    106,344    1411
58,151    106,348    1410
58,141    106,215    1412
58,131    106,376    1410
58,121    106,252    1412
58,111    106,491    1409
58,101    106,440    1409
58,091    106,155    1413
58,081    106,390    1410
58,071    106,630    1407
58,061    106,597    1407
58,051    106,620    1407
58,041    106,413    1410
58,031    106,533    1408
58,021    106,792    1405
58,011    106,648    1406
58,001    106,399    1410
57,991    106,694    1406
57,981    106,718    1406
57,971    106,417    1410
57,961    106,537    1408
57,951    106,657    1406
57,941    106,496    1409
57,931    106,486    1409
57,921    106,579    1407
57,911    106,210    1412
57,901    106,482    1409
57,891    106,454    1409
57,881    106,593    1407
57,871    106,247    1412
57,861    106,114    1414
57,851    106,639    1407
57,841    106,570    1408
57,831    106,348    1410
57,821    106,146    1413
57,811    106,210    1412
57,801    106,579    1407
57,791    106,270    1411
57,781    106,325    1411
57,771    106,321    1411
57,761    106,316    1411
57,751    106,620    1407
57,741    106,206    1412
57,731    106,353    1410
57,721    106,242    1412
57,711    106,371    1410
57,701    106,408    1410
57,691    106,210    1412
57,681    106,201    1412
57,671    106,551    1408
57,661    106,431    1409
57,651    106,413    1410
57,641    106,413    1410
57,631    106,339    1411
57,621    106,233    1412
57,611    106,348    1410
57,601    106,713    1406
57,591    106,321    1411
57,581    106,238    1412
57,571    106,486    1409
57,561    106,764    1405
57,551    106,270    1411
57,541    106,334    1411
57,531    106,224    1412
57,521    106,270    1411
57,511    106,593    1407
57,501    106,353    1410
57,491    106,741    1405
57,481    106,119    1414
57,471    106,187    1413
57,461    106,445    1409
57,451    106,445    1409
57,441    106,463    1409
57,431    106,390    1410
57,421    106,353    1410
57,411    106,574    1407
57,401    106,491    1409
57,391    106,376    1410
57,381    106,316    1411
57,371    106,261    1412
57,361    106,593    1407
57,351    106,459    1409
57,341    106,219    1412
57,331    106,367    1410
57,321    106,583    1407
57,311    106,551    1408
57,301    106,880    1403
57,291    106,889    1403
57,281    107,122    1400
57,271    106,861    1404
57,261    106,546    1408
57,251    106,505    1408
57,241    106,736    1405
57,231    106,362    1410
57,221    106,616    1407
57,211    106,607    1407
57,201    106,620    1407
57,191    106,741    1405
57,181    106,560    1408
57,171    107,188    1399
57,161    107,141    1400
57,151    106,334    1411
57,141    106,773    1405
57,131    107,525    1395
57,121    106,750    1405
57,111    107,071    1401
57,101    107,521    1395
57,091    107,141    1400
57,081    107,043    1401
57,071    110,325    1360
57,061    107,775    1392
57,051    128,334    1169
57,041    112,188    1337
