Z-Pos[um]|R[MOhm]|I[pA]
58,994    106,413    1410
58,984    106,732    1405
58,974    106,445    1409
58,964    106,298    1411
58,954    106,450    1409
58,944    106,344    1411
58,934    106,155    1413
58,924    106,468    1409
58,914    106,325    1411
58,904    106,440    1409
58,894    106,367    1410
58,884    106,215    1412
58,874    106,417    1410
58,864    106,450    1409
58,854    106,422    1409
58,844    106,417    1410
58,834    106,293    1411
58,824    106,473    1409
58,814    106,385    1410
58,804    106,288    1411
58,794    106,426    1409
58,784    106,238    1412
58,774    106,565    1408
58,764    106,523    1408
58,754    106,265    1412
58,744    106,390    1410
58,734    106,141    1413
58,724    106,219    1412
58,714    106,431    1409
58,704    106,201    1412
58,694    106,367    1410
58,684    106,174    1413
58,674    106,164    1413
58,664    106,551    1408
58,654    106,357    1410
58,644    106,385    1410
58,634    106,357    1410
58,624    106,132    1413
58,614    106,570    1408
58,604    106,298    1411
58,594    106,293    1411
58,584    106,219    1412
58,574    106,371    1410
58,564    106,551    1408
58,554    106,390    1410
58,544    107,141    1400
58,534    106,394    1410
58,524    106,408    1410
58,514    106,477    1409
58,504    106,197    1412
58,494    106,463    1409
58,484    106,279    1411
58,474    106,275    1411
58,464    106,307    1411
58,454    106,164    1413
58,444    106,450    1409
58,434    106,298    1411
58,424    106,422    1409
58,414    106,275    1411
58,404    106,201    1412
58,394    106,371    1410
58,384    106,265    1412
58,374    106,298    1411
58,364    106,607    1407
58,354    106,242    1412
58,344    106,473    1409
58,334    106,431    1409
58,324    106,426    1409
58,314    106,783    1405
58,304    106,899    1403
58,294    106,787    1405
58,284    106,838    1404
58,274    106,620    1407
58,264    106,477    1409
58,254    106,523    1408
58,244    106,197    1412
58,234    106,293    1411
58,224    106,252    1412
58,214    106,362    1410
58,204    106,376    1410
58,194    106,302    1411
58,184    106,334    1411
58,174    106,151    1413
58,164    106,155    1413
58,154    106,616    1407
58,144    106,353    1410
58,134    106,082    1414
58,124    106,463    1409
58,114    106,302    1411
58,104    106,454    1409
58,094    106,426    1409
58,084    106,229    1412
58,074    106,426    1409
58,064    106,496    1409
58,054    106,357    1410
58,044    106,348    1410
58,034    105,945    1416
58,024    106,477    1409
58,014    106,371    1410
58,004    106,357    1410
57,994    106,579    1407
57,984    106,123    1413
57,974    106,450    1409
57,964    106,413    1410
57,954    106,422    1409
57,944    106,325    1411
57,934    106,187    1413
57,924    106,357    1410
57,914    106,500    1408
57,904    106,210    1412
57,894    106,436    1409
57,884    106,229    1412
57,874    106,160    1413
57,864    106,523    1408
57,854    106,229    1412
57,844    106,339    1411
57,834    106,215    1412
57,824    106,224    1412
57,814    106,611    1407
57,804    106,252    1412
57,794    106,311    1411
57,784    106,206    1412
57,774    106,422    1409
57,764    106,704    1406
57,754    106,316    1411
57,744    106,238    1412
57,734    106,362    1410
57,724    106,316    1411
57,714    106,445    1409
57,704    106,252    1412
57,694    106,284    1411
57,684    106,769    1405
57,674    106,973    1402
57,664    106,681    1406
57,654    106,344    1411
57,644    106,298    1411
57,634    106,229    1412
57,624    106,436    1409
57,614    106,160    1413
57,604    106,353    1410
57,594    106,307    1411
57,584    106,344    1411
57,574    106,523    1408
57,564    106,325    1411
57,554    106,100    1414
57,544    106,307    1411
57,534    106,160    1413
57,524    106,796    1405
57,514    106,736    1405
57,504    106,164    1413
57,494    106,528    1408
57,484    106,298    1411
57,474    106,482    1409
57,464    106,514    1408
57,454    106,270    1411
57,444    106,426    1409
57,434    106,353    1410
57,424    106,422    1409
57,414    106,440    1409
57,404    106,307    1411
57,394    106,509    1408
57,384    106,426    1409
57,374    106,380    1410
57,364    106,450    1409
57,354    106,325    1411
57,344    106,500    1408
57,334    106,436    1409
57,324    106,357    1410
57,314    106,542    1408
57,304    106,325    1411
57,294    106,394    1410
57,284    106,556    1408
57,274    106,426    1409
57,264    106,533    1408
57,254    106,330    1411
57,244    106,459    1409
57,234    106,625    1407
57,224    106,408    1410
57,214    106,533    1408
57,204    106,348    1410
57,194    106,422    1409
57,184    106,546    1408
57,174    106,597    1407
57,164    106,565    1408
57,154    106,616    1407
57,144    106,362    1410
57,134    106,699    1406
57,124    108,207    1386
57,114    106,348    1410
57,104    106,496    1409
57,094    106,987    1402
57,084    107,554    1395
57,074    107,085    1401
57,064    106,583    1407
57,054    107,178    1400
57,044    107,756    1392
57,034    109,013    1376
57,024    108,245    1386
57,014    107,643    1393
57,004    110,350    1359
