Z-Pos[um]|R[MOhm]|I[pA]
59,060    106,570    1408
59,050    106,787    1405
59,040    106,261    1412
59,030    106,334    1411
59,020    106,123    1413
59,010    106,348    1410
59,000    106,380    1410
58,990    106,132    1413
58,980    106,463    1409
58,970    106,385    1410
58,960    106,279    1411
58,950    106,376    1410
58,940    106,146    1413
58,930    106,426    1409
58,920    106,256    1412
58,910    106,201    1412
58,900    106,311    1411
58,890    106,206    1412
58,880    106,238    1412
58,870    106,187    1413
58,860    106,105    1414
58,850    106,436    1409
58,840    106,068    1414
58,830    106,201    1412
58,820    106,417    1410
58,810    106,215    1412
58,800    106,330    1411
58,790    106,256    1412
58,780    106,477    1409
58,770    106,857    1404
58,760    106,685    1406
58,750    106,174    1413
58,740    106,119    1414
58,730    106,450    1409
58,720    106,602    1407
58,710    106,247    1412
58,700    106,128    1413
58,690    106,146    1413
58,680    106,463    1409
58,670    106,496    1409
58,660    106,169    1413
58,650    106,602    1407
58,640    106,192    1413
58,630    106,380    1410
58,620    106,722    1406
58,610    106,362    1410
58,600    106,311    1411
58,590    106,385    1410
58,580    106,445    1409
58,570    106,588    1407
58,560    106,353    1410
58,550    106,353    1410
58,540    106,978    1402
58,530    106,169    1413
58,520    106,288    1411
58,510    106,500    1408
58,500    106,302    1411
58,490    106,413    1410
58,480    106,206    1412
58,470    106,238    1412
58,460    106,417    1410
58,450    106,178    1413
58,440    106,219    1412
58,430    106,551    1408
58,420    106,500    1408
58,410    106,824    1404
58,400    106,630    1407
58,390    106,546    1408
58,380    106,565    1408
58,370    106,750    1405
58,360    106,824    1404
58,350    106,403    1410
58,340    106,288    1411
58,330    106,413    1410
58,320    106,132    1413
58,310    106,178    1413
58,300    106,380    1410
58,290    106,206    1412
58,280    106,348    1410
58,270    106,344    1411
58,260    106,000    1415
58,250    106,367    1410
58,240    106,192    1413
58,230    106,367    1410
58,220    106,293    1411
58,210    106,018    1415
58,200    106,330    1411
58,190    106,367    1410
58,180    106,357    1410
58,170    106,242    1412
58,160    106,141    1413
58,150    106,219    1412
58,140    106,380    1410
58,130    106,302    1411
58,120    106,178    1413
58,110    106,183    1413
58,100    106,169    1413
58,090    106,597    1407
58,080    106,219    1412
58,070    106,201    1412
58,060    106,210    1412
58,050    106,219    1412
58,040    106,450    1409
58,030    106,279    1411
58,020    106,160    1413
58,010    106,215    1412
58,000    106,105    1414
57,990    106,334    1411
57,980    106,252    1412
57,970    106,178    1413
57,960    106,473    1409
57,950    106,132    1413
57,940    106,321    1411
57,930    106,376    1410
57,920    106,210    1412
57,910    106,537    1408
57,900    106,261    1412
57,890    106,417    1410
57,880    106,311    1411
57,870    106,087    1414
57,860    106,238    1412
57,850    106,750    1405
57,840    106,413    1410
57,830    106,450    1409
57,820    106,681    1406
57,810    106,413    1410
57,800    106,450    1409
57,790    106,607    1407
57,780    106,330    1411
57,770    106,551    1408
57,760    106,759    1405
57,750    106,824    1404
57,740    106,565    1408
57,730    106,690    1406
57,720    106,848    1404
57,710    106,764    1405
57,700    106,431    1409
57,690    106,588    1407
57,680    106,403    1410
57,670    106,385    1410
57,660    106,059    1414
57,650    106,385    1410
57,640    106,219    1412
57,630    106,362    1410
57,620    106,477    1409
57,610    106,132    1413
57,600    106,380    1410
57,590    106,224    1412
57,580    106,279    1411
57,570    106,662    1406
57,560    106,265    1412
57,550    106,634    1407
57,540    107,029    1401
57,530    106,288    1411
57,520    106,385    1410
57,510    106,151    1413
57,500    106,224    1412
57,490    106,500    1408
57,480    106,215    1412
57,470    106,417    1410
57,460    106,298    1411
57,450    106,229    1412
57,440    106,523    1408
57,430    106,187    1413
57,420    106,394    1410
57,410    106,298    1411
57,400    106,380    1410
57,390    106,644    1407
57,380    106,252    1412
57,370    106,330    1411
57,360    106,417    1410
57,350    106,229    1412
57,340    106,436    1409
57,330    106,357    1410
57,320    106,201    1412
57,310    106,496    1409
57,300    106,436    1409
57,290    106,583    1407
57,280    106,560    1408
57,270    106,293    1411
57,260    106,440    1409
57,250    106,403    1410
57,240    106,528    1408
57,230    106,602    1407
57,220    106,210    1412
57,210    106,848    1404
57,200    106,486    1409
57,190    106,491    1409
57,180    106,657    1406
57,170    106,468    1409
57,160    106,973    1402
57,150    106,796    1405
57,140    106,745    1405
57,130    106,875    1404
57,120    107,155    1400
57,110    108,585    1381
57,100    107,230    1399
57,090    106,708    1406
57,080    108,980    1376
57,070    111,628    1344
57,060    124,922    1201
